Time (s)   Thrust (N)   RPM  Input
0.00020	2.08515	3845.80300	7.00000
0.03341	2.38210	4087.63100	7.00000
0.06809	2.62410	4186.64400	7.00000
0.10278	2.80838	4306.25000	7.00000
0.13747	2.91812	4440.78900	7.00000
0.17218	3.04061	4523.13300	7.00000
0.20688	3.12759	4523.28800	7.00000
0.24158	3.18431	4577.03000	7.00000
0.27628	3.23481	4616.29800	7.00000
0.31098	3.26801	4602.53900	7.00000
0.34567	3.29599	4617.18700	7.00000
0.38037	3.31642	4649.41400	7.00000
0.41509	3.32884	4664.20800	7.00000
0.44978	3.33833	4646.73900	7.00000
0.48449	3.34667	4661.29600	7.00000
0.51919	3.34777	4664.35100	7.00000
0.55389	3.35706	4681.67700	7.00000
0.58860	3.37587	4649.88400	7.00000
0.62329	3.37368	4664.35100	7.00000
0.65800	3.37301	4684.58800	7.00000
0.69269	3.36740	4687.50000	7.00000
0.72740	3.37414	4661.45800	7.00000
0.76211	3.37274	4690.41100	7.00000
0.79681	3.37549	4673.12100	7.00000
0.83150	3.37063	4696.23400	7.00000
0.86621	3.37429	4667.24500	7.00000
0.90091	3.37818	4673.12100	7.00000
0.93561	3.37971	4702.05700	7.00000
0.97032	3.37795	4707.88000	7.00000
1.00501	3.38093	4670.24500	7.00000
1.03970	3.37989	4678.81900	7.00000
1.07441	3.37187	4673.12100	7.00000
1.10912	3.37152	4707.88000	7.00000
1.14382	3.36810	4704.96900	7.00000
1.17852	3.37053	4707.75500	7.00000
1.21322	3.36822	4675.92600	7.00000
1.24792	3.37626	4684.60600	7.00000
1.28262	3.37651	4678.87200	7.00000
1.31733	3.36172	4681.71300	7.00000
1.35204	3.37536	4681.71300	7.00000
1.38673	3.38460	4684.62400	7.00000
1.42144	3.37820	4687.50000	7.00000
1.45614	3.38483	4681.74800	7.00000
1.49084	3.38149	4693.28700	7.00000
1.52555	3.37932	4716.61400	7.00000
1.56025	3.37878	4690.37600	7.00000
1.59495	3.38385	4684.60600	7.00000
1.62966	3.38529	4678.81900	7.00000
1.66436	3.38583	4681.74800	7.00000
1.69907	3.37825	4684.60600	7.00000
1.73377	3.38181	4684.60600	7.00000
1.76846	3.38680	4684.62400	7.00000
1.80316	3.37589	4684.60600	7.00000
1.83787	3.38266	4690.37600	7.00000
1.87258	3.20944	4719.52600	7.00000
1.90728	3.38719	4690.39300	7.00000
1.94198	3.36982	4687.50000	7.00000
1.97669	3.37897	4690.39300	7.00000
2.01139	3.37972	4713.70300	7.00000
2.04610	3.38055	4713.54100	7.00000
2.08079	3.38022	4687.50000	7.00000
2.11551	3.37888	4687.50000	7.00000
2.15020	3.37161	4690.37600	7.00000
2.18490	3.36900	4722.43800	7.00000
2.21960	3.37739	4693.25100	7.00000
2.25431	3.37783	4690.39300	7.00000
2.28900	3.37777	4699.07400	7.00000
2.32371	3.37771	4693.25100	7.00000
2.35842	3.36645	4696.18000	7.00000
2.39312	3.36932	4696.18000	7.00000
2.42781	3.37133	4693.25100	7.00000
2.46252	3.37346	4701.96700	7.00000
2.49719	3.36662	4701.96700	7.00000
2.53193	3.36316	4701.87900	7.00000
2.56663	3.36146	4699.07400	7.00000
2.60134	3.34957	4676.06700	7.00000
2.63605	3.35450	4704.86100	7.00000
2.67075	3.35464	4707.75500	7.00000
2.70545	3.35648	4710.50600	7.00000
2.74015	3.35927	4710.64800	7.00000
2.77486	3.35288	4713.54100	7.00000
2.80956	3.32435	4707.63000	7.00000
2.84426	3.34626	4710.64800	7.00000
2.87895	3.33870	4716.25800	7.00000
2.91366	3.30290	4719.32900	7.00000
2.94836	3.35293	4719.32900	7.00000
2.98307	3.34555	4722.00900	7.00000
3.01776	3.34305	4716.43500	7.00000
3.05247	3.35435	4693.25100	7.00000
3.08716	3.34203	4730.63600	7.00000
3.12187	3.34225	4722.22200	7.00000
3.15657	3.33782	4725.11500	7.00000
3.19128	3.33496	4730.63600	7.00000
3.22598	3.34705	4693.25100	7.00000
3.26068	3.34397	4696.07400	7.00000
3.29539	3.32713	4730.90300	7.00000
3.33008	3.34167	4699.00300	7.00000
3.36478	3.33282	4696.07400	7.00000
3.39948	3.34338	4728.00900	7.00000
3.43419	3.34655	4725.11500	7.00000
3.46890	3.34709	4724.88500	7.00000
3.50359	3.34755	4699.00300	7.00000
3.53831	3.34201	4698.93300	7.00000
3.57300	3.33439	4730.90300	7.00000
3.60772	3.34294	4699.00300	7.00000
3.64241	3.33446	4725.11500	7.00000
3.72130	3.33061	4699.00300	7.00000
3.75598	3.35191	4728.00900	7.00000
3.79068	3.33944	4724.88500	7.00000
3.82539	3.35091	4707.63000	7.00000
3.86009	3.34335	4728.00900	7.00000
3.89480	3.33808	4724.88500	7.00000
3.92951	3.34603	4699.00300	7.00000
3.96420	3.34401	4698.93300	7.00000
3.99891	3.34904	4728.00900	7.00000
4.03362	3.35378	4699.00300	7.00000
4.11279	3.35000	4701.79100	7.00000
4.14747	3.35161	4728.00900	7.00000
4.18219	3.34959	4699.00300	7.00000
4.21689	3.33783	4724.88500	7.00000
4.25159	3.34931	4693.25100	7.00000
4.28629	3.35658	4725.11500	7.00000
4.32100	3.35455	4722.00900	7.00000
4.35571	3.35539	4693.25100	7.00000
4.39041	3.35109	4719.13300	7.00000
4.42513	3.34921	4696.12700	7.00000
4.45981	3.34136	4725.11500	7.00000
4.49452	3.33858	4724.88500	7.00000
4.52922	3.34572	4725.11500	7.00000
4.56392	3.34894	4690.37600	7.00000
4.59862	3.35477	4696.07400	7.00000
4.63334	3.35519	4722.22200	7.00000
4.66804	3.35355	4719.32900	7.00000
4.70275	3.36434	4707.63000	7.00000
4.73745	3.35466	4722.22200	7.00000
4.77215	3.34772	4713.38200	7.00000
4.80685	3.32291	4719.32900	7.00000
4.84155	3.34734	4719.32900	7.00000
4.87626	3.34463	4719.13300	7.00000
4.91095	3.34599	4722.22200	7.00000
4.94567	3.34782	4690.37600	7.00000
4.98037	3.34673	4724.88500	7.00000
5.01544	3.33070	4623.04700	6.22500
5.04980	3.07552	4400.00000	6.22500
5.08448	2.80309	4269.08500	6.22500
5.11918	2.58429	4104.02100	6.22500
5.15389	2.41405	3974.33000	6.22500
5.18858	2.30503	3897.12600	6.22500
5.22328	2.20474	3833.33300	6.22500
5.25799	2.13166	3767.49000	6.22500
5.29269	2.07207	3714.75500	6.22500
5.32739	2.03520	3682.52800	6.22500
5.36209	1.99520	3664.12200	6.22500
5.39679	1.96838	3656.25000	6.22500
5.43150	1.95036	3627.40300	6.22500
5.46620	1.91744	3609.37500	6.22500
5.50092	1.91908	3626.45300	6.22500
5.53561	1.90109	3608.28500	6.22500
5.57031	1.90469	3597.38300	6.22500
5.60502	1.88487	3555.28800	6.22500
5.63973	1.86942	3575.58100	6.22500
5.67442	1.86591	3568.31400	6.22500
5.70913	1.87260	3564.68000	6.22500
5.74383	1.87143	3564.68000	6.22500
5.77853	1.87035	3561.04600	6.22500
5.81323	1.86897	3553.77900	6.22500
5.84792	1.86719	3553.77900	6.22500
5.88263	1.87257	3550.14500	6.22500
5.91732	1.86496	3550.14500	6.22500
5.95204	1.86593	3550.14500	6.22500
5.98673	1.86080	3550.14500	6.22500
6.02144	1.85469	3577.88000	6.22500
6.05613	1.85732	3546.51100	6.22500
6.09084	1.85963	3550.14500	6.22500
6.12553	1.85759	3546.51100	6.22500
6.16024	1.85463	3577.88000	6.22500
6.19493	1.86391	3546.51100	6.22500
6.22964	1.85092	3546.51100	6.22500
6.26436	1.84536	3550.14500	6.22500
6.29905	1.85342	3577.88000	6.22500
6.33376	1.85214	3550.14500	6.22500
6.36844	1.85503	3546.51100	6.22500
6.40315	1.85789	3550.14500	6.22500
6.43785	1.85170	3577.88000	6.22500
6.47255	1.85105	3553.77900	6.22500
6.50725	1.85307	3550.14500	6.22500
6.54196	1.84686	3550.14500	6.22500
6.57665	1.84825	3550.14500	6.22500
6.61136	1.85511	3550.14500	6.22500
6.64606	1.84884	3550.14500	6.22500
6.68076	1.84571	3553.77900	6.22500
6.71546	1.84451	3557.41200	6.22500
6.75015	1.84172	3561.04600	6.22500
6.78486	1.83641	3557.41200	6.22500
6.81956	1.84110	3553.77900	6.22500
6.85425	1.84152	3557.41200	6.22500
6.88895	1.85011	3557.41200	6.22500
6.92366	1.84225	3564.68000	6.22500
6.95836	1.85099	3561.04600	6.22500
6.99307	1.84877	3553.77900	6.22500
7.02777	1.84671	3561.04600	6.22500
7.06247	1.84582	3557.41200	6.22500
7.09718	1.84559	3561.04600	6.22500
7.13187	1.84965	3561.04600	6.22500
7.16656	1.84776	3557.41200	6.22500
7.20127	1.84352	3537.25900	6.22500
7.23597	1.83711	3568.31400	6.22500
7.27067	1.84478	3568.31400	6.22500
7.30537	1.84978	3564.68000	6.22500
7.34007	1.84717	3568.31400	6.22500
7.37478	1.84751	3537.25900	6.22500
7.40947	1.85593	3564.68000	6.22500
7.44417	1.85730	3568.31400	6.22500
7.47888	1.85381	3571.94700	6.22500
7.51357	1.85338	3568.31400	6.22500
7.54827	1.85342	3571.94700	6.22500
7.58298	1.85115	3568.31400	6.22500
7.61768	1.85206	3571.94700	6.22500
7.65239	1.85032	3571.94700	6.22500
7.68708	1.84904	3544.47100	6.22500
7.72179	1.85152	3544.47100	6.22500
7.75649	1.85844	3571.94700	6.22500
7.79118	1.84400	3548.07700	6.22500
7.82590	1.85006	3571.94700	6.22500
7.86060	1.85289	3575.58100	6.22500
7.89529	1.85231	3568.31400	6.22500
7.92998	1.84850	3571.94700	6.22500
7.96469	1.84804	3571.94700	6.22500
7.99939	1.85132	3571.94700	6.22500
8.03409	1.85984	3568.31400	6.22500
8.06879	1.85370	3568.31400	6.22500
8.10350	1.85236	3544.47100	6.22500
8.13819	1.85592	3544.47100	6.22500
8.17290	1.85713	3564.68000	6.22500
8.20760	1.85332	3564.68000	6.22500
8.24231	1.85952	3564.68000	6.22500
8.27702	1.86138	3564.68000	6.22500
8.31172	1.86564	3540.86500	6.22500
8.34640	1.86297	3564.68000	6.22500
8.38112	1.86186	3568.31400	6.22500
8.41582	1.87781	3571.94700	6.22500
8.45052	1.85602	3571.94700	6.22500
8.48521	1.86109	3568.31400	6.22500
8.51993	1.86211	3568.31400	6.22500
8.55463	1.85240	3568.31400	6.22500
8.58934	1.85358	3540.86500	6.22500
8.62404	1.85856	3564.68000	6.22500
8.65873	1.85782	3571.94700	6.22500
8.69344	1.85856	3571.94700	6.22500
8.72814	1.86097	3568.31400	6.22500
8.76284	1.86616	3571.94700	6.22500
8.79754	1.88919	3568.31400	6.22500
8.83225	1.87481	3568.31400	6.22500
8.86695	1.86313	3568.31400	6.22500
8.90166	1.88046	3544.47100	6.22500
8.93636	1.86751	3564.68000	6.22500
8.97106	1.86351	3568.31400	6.22500
9.00576	1.86645	3568.31400	6.22500
9.04046	1.86146	3564.68000	6.22500
9.07517	1.86831	3564.68000	6.22500
9.10988	1.87001	3564.68000	6.22500
9.14457	1.86854	3568.31400	6.22500
9.17927	1.86038	3564.68000	6.22500
9.21399	1.86525	3564.68000	6.22500
9.24868	1.86490	3564.68000	6.22500
9.28338	1.85565	3561.04600	6.22500
9.31808	1.86697	3564.68000	6.22500
9.35279	1.86353	3564.68000	6.22500
9.38749	1.86211	3561.04600	6.22500
9.42219	1.86846	3561.04600	6.22500
9.45689	1.85829	3537.25900	6.22500
9.49160	1.85481	3564.68000	6.22500
9.52630	1.85242	3564.68000	6.22500
9.56100	1.85841	3561.04600	6.22500
9.59571	1.85659	3561.04600	6.22500
9.63041	1.85627	3564.68000	6.22500
9.66511	1.85307	3564.68000	6.22500
9.69982	1.85268	3564.68000	6.22500
9.73452	1.85341	3564.68000	6.22500
9.76921	1.86032	3568.31400	6.22500
9.80392	1.85563	3568.31400	6.22500
9.83863	1.85056	3568.31400	6.22500
9.87332	1.85729	3568.31400	6.22500
9.95162	1.85070	3571.94700	6.22500
9.98631	1.86000	3540.86500	6.22500
