Time (s)   Thrust (N)   RPM
0.00026	2.96890	4309.37500
0.07693	2.44880	3953.80400
0.11165	1.68115	3273.68900
0.19002	1.44638	3093.75000
0.22478	1.26035	2856.95000
0.25953	1.09786	2726.15100
0.29428	0.95824	2659.09000
0.32903	0.86016	2517.36100
0.36379	0.75542	2404.51400
0.39855	0.72536	2312.79500
0.43331	0.67576	2276.14100
0.46806	0.62373	2167.96800
0.50282	0.56807	2104.86700
0.53758	0.55147	2072.61000
0.57233	0.54818	2026.65400
0.60709	0.53300	1957.72000
0.64185	0.52160	1949.99900
0.67661	0.50529	1912.50000
0.71136	0.48031	1913.26500
0.74612	0.46923	1884.56600
0.78087	0.45826	1818.75000
0.81563	0.43757	1822.38500
0.85040	0.42620	1808.03500
0.88515	0.41273	1784.12000
0.91991	0.40244	1764.98700
0.95467	0.40284	1750.63700
0.98941	0.40652	1741.07100
1.02418	0.40076	1726.72100
1.05894	0.38476	1707.58900
1.13856	0.38451	1693.23900
1.17330	0.38101	1728.51500
1.20804	0.37778	1718.75000
1.24280	0.37372	1674.10700
1.27755	0.36929	1704.10100
1.31232	0.36678	1669.32400
1.34707	0.37278	1694.33600
1.42606	0.36415	1659.75700
1.46081	0.36465	1689.45300
1.49558	0.36609	1684.57000
1.53032	0.36927	1650.19100
1.56508	0.36554	1684.57000
1.59984	0.36438	1684.57000
1.63459	0.35996	1684.57000
1.66934	0.35349	1679.68700
1.70411	0.36279	1679.68700
1.78406	0.36075	1674.80400
1.81865	0.36438	1640.62500
1.85341	0.36383	1640.62500
1.88815	0.36359	1635.84100
1.92292	0.36205	1674.80400
1.95766	0.36050	1674.80400
1.99243	0.35859	1669.92100
2.02718	0.36130	1674.80400
2.06194	0.35992	1679.68700
2.09669	0.36225	1669.92100
2.13144	0.36114	1669.92100
2.16621	0.35949	1669.92100
2.20095	0.36040	1674.80400
2.23571	0.35466	1669.92100
2.27047	0.35439	1669.92100
2.30522	0.34874	1674.80400
2.33998	0.35515	1635.84100
2.37473	0.35281	1635.84100
2.40949	0.35549	1635.84100
2.44425	0.35098	1631.05800
2.47902	0.35049	1635.84100
2.51376	0.35094	1635.84100
2.54853	0.35377	1669.92100
2.58328	0.35133	1669.92100
2.61805	0.35402	1669.92100
2.65279	0.35844	1669.92100
2.68755	0.35779	1669.92100
2.72233	0.35805	1674.80400
2.75708	0.35744	1669.92100
2.79183	0.35173	1669.92100
2.82659	0.34767	1674.80400
2.86134	0.35184	1669.92100
2.89609	0.35170	1674.80400
2.93085	0.35165	1669.92100
2.96560	0.35522	1674.80400
3.00037	0.35322	1669.92100
3.03512	0.35719	1669.92100
3.06988	0.35500	1669.92100
3.10463	0.35162	1665.03900
3.13939	0.35198	1665.03900
3.17415	0.35841	1665.03900
3.20889	0.35142	1665.03900
3.24366	0.35998	1665.03900
3.27841	0.35608	1665.03900
3.31317	0.36178	1665.03900
3.34792	0.35581	1665.03900
3.38267	0.35585	1665.03900
3.41744	0.35405	1665.03900
3.45219	0.35413	1665.03900
3.48695	0.35663	1669.92100
3.52170	0.35940	1669.92100
3.55646	0.35708	1669.92100
3.59122	0.36010	1669.92100
3.62598	0.35526	1669.92100
3.66072	0.35392	1669.92100
3.69548	0.35076	1669.92100
3.73025	0.35430	1669.92100
3.76499	0.35980	1669.92100
3.84341	0.35772	1669.92100
3.87816	0.34631	1665.03900
3.91292	0.35430	1669.92100
3.94767	0.35362	1674.80400
3.98243	0.35958	1669.92100
4.01719	0.34926	1665.03900
4.05195	0.35812	1665.03900
4.08669	0.35064	1669.92100
4.12145	0.36106	1674.80400
4.15621	0.35773	1665.03900
4.19097	0.36187	1665.03900
4.22572	0.36127	1665.03900
4.26047	0.35849	1669.92100
4.29523	0.36106	1665.03900
4.32999	0.36314	1665.03900
4.36474	0.35874	1665.03900
4.39950	0.36482	1665.03900
4.43427	0.35811	1665.03900
4.46901	0.35942	1660.15600
4.50378	0.35958	1665.03900
4.53854	0.35483	1665.03900
4.57328	0.36585	1665.03900
4.60805	0.36449	1665.03900
4.64280	0.35047	1669.92100
4.67756	0.36166	1669.92100
4.71232	0.35988	1669.92100
4.74708	0.36218	1665.03900
4.78183	0.35825	1665.03900
4.81658	0.36647	1631.05800
4.85134	0.36388	1635.84100
4.88610	0.36286	1669.92100
4.96552	0.35886	1665.03900
5.00027	0.36144	1669.92100
5.03503	0.35620	1665.03900
5.06978	0.36938	1665.03900
5.10454	0.35823	1660.15600
5.13930	0.36254	1665.03900
5.17405	0.36226	1665.03900
5.20881	0.35752	1665.03900
5.24356	0.36091	1660.15600
5.27832	0.36562	1665.03900
5.31307	0.36095	1660.15600
5.34784	0.36023	1665.03900
5.38259	0.37144	1626.27500
5.41734	0.35803	1626.27500
5.45210	0.36417	1665.03900
5.48687	0.36387	1635.84100
5.52162	0.36183	1665.03900
5.55637	0.36426	1660.15600
5.59113	0.36056	1665.03900
5.62587	0.36755	1669.92100
5.66063	0.36436	1665.03900
5.69540	0.36587	1665.03900
5.73015	0.36092	1665.03900
5.76490	0.36177	1665.03900
5.79966	0.36152	1669.92100
5.83443	0.36445	1665.03900
5.86917	0.36303	1665.03900
5.90394	0.36682	1669.92100
5.93869	0.36123	1665.03900
5.97345	0.36819	1665.03900
6.00856	0.35879	1935.93700
6.04300	0.85129	2783.20300
6.07773	1.55399	3471.67900
6.11247	2.39432	4112.79900
6.14723	3.02960	4542.12800
6.18198	3.40305	4653.20100
6.21675	3.63611	4854.91000
6.25150	3.77314	4979.77900
6.28625	3.85648	4951.50800
6.32101	3.90561	4991.91800
6.35577	3.92448	5040.40900
6.39052	3.95465	4985.79500
6.42528	3.96313	5023.08200
6.46003	3.96551	5061.96100
6.49478	3.96457	5036.39900
6.52954	3.96080	5012.42900
6.56429	3.97064	5041.72600
6.59905	3.96517	5007.10200
6.63381	3.96898	5036.39900
6.66856	3.95649	5070.04300
6.70333	3.96478	5047.05200
6.73808	3.96824	5072.73700
6.77285	3.97443	5044.38900
6.80759	3.97077	5070.04300
6.84235	3.97413	5036.39900
6.87711	3.96696	5012.42900
6.91186	3.97099	5041.72600
6.94662	3.96539	5007.10200
6.98138	3.97081	5041.72600
7.01613	3.96359	5017.75500
7.05089	3.97035	5041.72600
7.08565	3.96197	5072.73700
7.12040	3.96525	5072.73700
7.15514	3.96543	5020.41900
7.18991	3.96969	5070.04300
7.22467	3.97090	5044.38900
7.25944	3.96393	5012.42900
7.29419	3.96113	5044.38900
7.32893	3.96820	5015.09200
7.36371	3.95338	4985.07700
7.39845	3.96174	5017.75500
7.43320	3.96180	5044.38900
7.46797	3.96247	5017.75500
7.50272	3.95745	5015.09200
7.58251	3.96432	5015.09200
7.61726	3.95467	5047.05200
7.65203	3.96538	5015.09200
7.68679	3.96633	4987.71100
7.72154	3.97132	5023.08200
7.75629	3.94947	5072.73700
7.83470	3.95743	5078.12500
7.86945	3.94638	5047.05200
7.90419	3.95632	5075.43100
7.93894	3.96551	5052.37900
7.97371	3.94156	5080.81900
8.00847	3.94660	5052.37900
8.04322	3.96241	5072.73700
8.07799	3.93897	5044.38900
8.11275	3.94867	5080.81900
8.14750	3.95482	5049.71600
8.18226	3.95401	5078.12500
8.21701	3.94035	5049.71600
8.25177	3.96054	5025.74500
8.28652	3.96179	5055.04200
8.32129	3.94266	5020.41900
8.35605	3.96127	5047.05200
8.39079	3.95749	5023.08200
8.42556	3.94788	4995.61100
8.46032	3.94241	5020.41900
8.49507	3.95334	4992.97700
8.52984	3.94612	5017.75500
8.56460	3.94123	4992.97700
8.59934	3.95206	5025.74500
8.63412	3.94449	5052.37900
8.66886	3.94371	5023.08200
8.70362	3.94138	5052.37900
8.73837	3.93816	5023.08200
8.77314	3.94890	5023.08200
8.80789	3.94497	5057.70600
8.84260	3.93540	5083.51300
8.87742	3.94638	5052.37900
8.91219	3.93895	5080.81900
8.94692	3.93517	5055.04200
8.98168	3.94018	5025.74500
9.01645	3.94280	5000.87700
9.05120	3.93734	5025.74500
9.08596	3.94244	5052.37900
9.12072	3.94260	5023.08200
9.15548	3.93824	5057.70600
9.19024	3.93993	5086.20700
9.22499	3.93518	5057.70600
9.25976	3.93769	5028.40900
9.29452	3.93869	4998.24400
9.32926	3.94952	5023.08200
9.36402	3.94200	4998.24400
9.39878	3.93417	5020.41900
9.43355	3.93967	5057.70600
9.46829	3.93678	5025.74500
9.50308	3.94253	5052.37900
9.53781	3.93384	5083.51300
9.57257	3.93601	5055.04200
9.60734	3.95138	5080.81900
9.64209	3.94882	5049.71600
9.67685	3.93279	5078.12500
9.71160	3.95131	5052.37900
9.74636	3.95902	5023.08200
9.78112	3.94418	5049.71600
9.81587	3.94981	5023.08200
9.85063	3.95056	4992.97700
9.88538	3.94361	5020.41900
9.92014	3.94753	4992.97700
9.95489	3.95777	5023.08200
9.98966	3.95328	4990.34400
10.02440	3.94719	5017.75500
10.05917	3.95307	5017.75500
10.09393	3.94644	4990.34400
10.12870	3.95440	5017.75500
10.16344	3.95429	5044.38900
10.19819	3.95466	5070.04300
10.23295	3.95275	5044.38900
10.26772	3.96221	5075.43100
10.30246	3.95810	5047.05200
10.33722	3.95557	5067.34900
10.37198	3.95487	5044.38900
10.40674	3.95653	5072.73700
10.44150	3.95923	5044.38900
10.47626	3.95494	5017.75500
10.51101	3.95655	5049.71600
10.54577	3.95465	5009.76500
10.58052	3.95411	5044.38900
10.61527	3.95439	5017.75500
10.65005	3.95827	4990.34400
10.68479	3.95117	5017.75500
10.71955	3.95549	4987.71100
10.75432	3.95731	5015.09200
10.78906	3.94917	5041.72600
10.82382	3.95541	5075.43100
10.85858	3.94883	5041.72600
10.89334	3.94592	5070.04300
10.92808	3.94473	5044.38900
10.96285	3.94501	5067.34900
10.99761	3.95351	5041.72600
11.03236	3.94228	5017.75500
11.06712	3.94117	5047.05200
11.10188	3.95150	5017.75500
11.13663	3.94122	5041.72600
11.17140	3.93879	5015.09200
11.20615	3.94303	5017.75500
11.24089	3.94189	5031.07300
11.27566	3.94056	5017.75500
11.31042	3.94012	4992.97700
11.34520	3.94352	5017.75500
11.37994	3.93582	4992.97700
11.41470	3.93952	5023.08200
11.44945	3.94356	4992.97700
11.48421	3.94397	5020.41900
11.51896	3.94206	4990.34400
11.55371	3.94393	5012.42900
11.58848	3.94182	4987.71100
11.62323	3.94276	5017.75500
11.65799	3.94347	4990.34400
11.69273	3.94392	5023.08200
11.72750	3.93707	4992.97700
11.76225	3.94195	5020.41900
11.79702	3.94494	4990.34400
11.83177	3.94928	5015.09200
11.86652	3.94351	4987.71100
11.90127	3.94948	5015.09200
11.93603	3.94678	5047.05200
11.97078	3.94939	5023.08200
