Time (s)   Thrust (N)   RPM
0.00028	1.70262	3288.93400
0.07695	1.47837	3114.40600
0.11167	1.29969	2937.76900
0.14641	1.14586	2709.70300
0.18116	1.01628	2603.23600
0.21591	0.93929	2522.72700
0.25067	0.83908	2395.83300
0.28544	0.79180	2352.59400
0.32018	0.71619	2271.63400
0.35493	0.68043	2199.51900
0.38969	0.63234	2155.33000
0.42444	0.59729	2059.79500
0.45920	0.56246	2031.25000
0.49395	0.54108	1971.50700
0.52871	0.51991	1968.74900
0.56347	0.50033	1926.56200
0.59823	0.48412	1893.75000
0.63298	0.46229	1898.91500
0.66773	0.44868	1865.43300
0.70249	0.44137	1809.37500
0.73724	0.43335	1817.60200
0.77200	0.42041	1798.46900
0.80676	0.41233	1784.12000
0.84152	0.40490	1769.77000
0.87628	0.39876	1750.63700
0.91103	0.39476	1741.07100
0.94578	0.39102	1731.50500
0.98053	0.38546	1717.15500
1.01529	0.38266	1707.58900
1.05005	0.37909	1702.80600
1.08480	0.37549	1698.02300
1.11955	0.37225	1723.63200
1.15430	0.37133	1723.63200
1.18908	0.36768	1678.89000
1.22382	0.36762	1708.98400
1.25857	0.36845	1704.10100
1.33709	0.36379	1664.54000
1.37184	0.36588	1694.33600
1.40659	0.36453	1689.45300
1.44135	0.36220	1659.75700
1.47611	0.36078	1689.45300
1.51087	0.35596	1689.45300
1.54562	0.35669	1684.57000
1.58037	0.35656	1650.19100
1.61512	0.35998	1684.57000
1.64989	0.35565	1684.57000
1.68464	0.35906	1679.68700
1.71940	0.35763	1679.68700
1.75415	0.35818	1640.62500
1.78891	0.35494	1640.62500
1.82368	0.35445	1674.80400
1.85843	0.35220	1674.80400
1.89319	0.35531	1674.80400
1.92795	0.35791	1674.80400
1.96270	0.35646	1669.92100
1.99746	0.35595	1674.80400
2.03221	0.35767	1674.80400
2.06697	0.35747	1640.62500
2.10172	0.35763	1640.62500
2.13647	0.35172	1674.80400
2.17123	0.35006	1669.92100
2.20599	0.35296	1674.80400
2.24074	0.35445	1669.92100
2.27551	0.35693	1674.80400
2.31026	0.35786	1674.80400
2.34501	0.35531	1674.80400
2.37976	0.35614	1669.92100
2.41452	0.35352	1669.92100
2.44928	0.35114	1674.80400
2.48403	0.35270	1669.92100
2.51878	0.35238	1674.80400
2.55354	0.35455	1674.80400
2.58830	0.35637	1635.84100
2.62306	0.35473	1640.62500
2.65780	0.35670	1640.62500
2.69256	0.35941	1635.84100
2.72735	0.35466	1669.92100
2.80596	0.35396	1669.92100
2.84071	0.35625	1674.80400
2.87546	0.35664	1669.92100
2.91023	0.35519	1669.92100
2.94497	0.35280	1665.03900
2.97973	0.35251	1669.92100
3.01448	0.35287	1635.84100
3.04923	0.35461	1635.84100
3.08400	0.35628	1635.84100
3.11875	0.35784	1640.62500
3.15351	0.35791	1669.92100
3.18826	0.35741	1669.92100
3.22302	0.35691	1669.92100
3.25773	0.35309	1674.80400
3.29253	0.35342	1669.92100
3.32729	0.35440	1669.92100
3.36204	0.35662	1669.92100
3.39680	0.35769	1669.92100
3.43155	0.35981	1674.80400
3.46630	0.35972	1665.03900
3.50105	0.35677	1669.92100
3.53581	0.35412	1674.80400
3.57057	0.35331	1669.92100
3.60532	0.35242	1669.92100
3.64008	0.35503	1669.92100
3.67483	0.35758	1669.92100
3.70959	0.35818	1669.92100
3.74435	0.35598	1669.92100
3.77910	0.35610	1669.92100
3.81387	0.35463	1669.92100
3.84861	0.35485	1669.92100
3.88337	0.35625	1665.03900
3.91812	0.35491	1665.03900
3.95288	0.35785	1669.92100
3.98764	0.35902	1669.92100
4.02240	0.35882	1674.80400
4.05715	0.35931	1669.92100
4.09190	0.35837	1665.03900
4.12666	0.35596	1635.84100
4.16142	0.35477	1635.84100
4.19617	0.35619	1635.84100
4.23092	0.36047	1669.92100
4.26569	0.36012	1674.80400
4.30045	0.35988	1669.92100
4.33519	0.36033	1665.03900
4.36994	0.35798	1669.92100
4.40470	0.35515	1669.92100
4.43946	0.35659	1669.92100
4.47422	0.35583	1669.92100
4.50897	0.35722	1669.92100
4.54373	0.35916	1674.80400
4.57848	0.35924	1669.92100
4.61324	0.35875	1669.92100
4.64798	0.35531	1669.92100
4.68275	0.35466	1669.92100
4.71749	0.35195	1669.92100
4.75226	0.35299	1665.03900
4.78701	0.35521	1674.80400
4.82176	0.35621	1669.92100
4.85652	0.35825	1669.92100
4.89128	0.35948	1669.92100
4.92602	0.35701	1665.03900
4.96078	0.35537	1674.80400
4.99553	0.35403	1669.92100
5.03030	0.35509	1669.92100
5.06506	0.35349	1669.92100
5.09982	0.35737	1635.84100
5.13455	0.35927	1635.84100
5.16931	0.35989	1635.84100
5.20407	0.35749	1635.84100
5.23881	0.35460	1640.62500
5.27356	0.35202	1640.62500
5.30832	0.35306	1635.84100
5.34308	0.35452	1669.92100
5.37784	0.35452	1674.80400
5.41258	0.35620	1674.80400
5.44733	0.35713	1669.92100
5.48209	0.35678	1669.92100
5.51684	0.35451	1674.80400
5.55160	0.35145	1674.80400
5.58634	0.35441	1674.80400
5.62109	0.35082	1669.92100
5.65585	0.35343	1669.92100
5.69061	0.35428	1669.92100
5.72536	0.35924	1640.62500
5.76011	0.35781	1640.62500
5.79487	0.35710	1640.62500
5.82961	0.35229	1674.80400
5.86437	0.35184	1669.92100
5.94330	0.35593	1669.92100
5.97805	0.35806	1674.80400
6.01318	0.35681	1982.81200
6.04760	0.64452	2423.34900
6.08234	0.93306	2707.86800
6.11709	1.19915	3054.81900
6.15183	1.39869	3261.71800
6.18660	1.57328	3353.07400
6.22134	1.69815	3409.42300
6.25609	1.79819	3533.93500
6.29084	1.87531	3591.34600
6.32561	1.94603	3663.46100
6.36036	1.98200	3668.32300
6.39510	2.03157	3710.93700
6.42986	2.04244	3697.52700
6.46461	2.08021	3718.51600
6.49936	2.09069	3799.71600
6.53411	2.10457	3756.99600
6.56886	2.10872	3763.99200
6.60361	2.11264	3777.98500
6.63837	2.12058	3788.47900
6.67314	2.12973	3802.47200
6.70788	2.12994	3798.97400
6.74264	2.13267	3746.55300
6.77739	2.14024	3816.46400
6.81214	2.14028	3809.46800
6.84689	2.14419	3816.46400
6.88166	2.14189	3812.96600
6.91641	2.13507	3809.46800
6.95116	2.13404	3816.46400
6.98593	2.14121	3816.46400
7.02068	2.14573	3851.44600
7.05543	2.14888	3826.95800
7.09019	2.14828	3770.68000
7.12494	2.13826	3819.96200
7.15969	2.14935	3819.96200
7.19445	2.15790	3770.68000
7.22921	2.15491	3830.45600
7.26396	2.15863	3830.45600
7.29872	2.14762	3767.23300
7.33342	2.15431	3823.46000
7.36823	2.14720	3823.46000
7.40298	2.14741	3770.68000
7.43774	2.14875	3833.95500
7.47249	2.15586	3826.95800
7.50724	2.15053	3770.68000
7.54201	2.15392	3833.95500
7.57677	2.15212	3830.45600
7.61151	2.14823	3770.68000
7.64622	2.15295	3774.12700
7.68102	2.15247	3823.46000
7.71578	2.14757	3767.23300
7.75054	2.14951	3770.68000
7.78530	2.15398	3830.45600
7.82005	2.15481	3770.68000
7.85480	2.15733	3844.44900
7.88956	2.14793	3830.45600
7.92432	2.15525	3770.68000
7.95908	2.15254	3816.46400
7.99382	2.14824	3763.78600
8.02857	2.14988	3774.12700
8.06332	2.15495	3833.95500
8.09809	2.15582	3833.95500
8.13284	2.15846	3781.02000
8.16759	2.15841	3777.57300
8.20235	2.14942	3833.95500
8.23709	2.15976	3826.95800
8.27187	2.15959	3770.68000
8.30661	2.15779	3767.23300
8.34138	2.15566	3819.96200
8.37613	2.15784	3763.78600
8.41087	2.15921	3823.46000
8.44564	2.15769	3823.46000
8.48039	2.15347	3770.68000
8.51516	2.15550	3826.95800
8.54990	2.16273	3770.68000
8.58466	2.16402	3770.68000
8.61941	2.15639	3826.95800
8.65416	2.15037	3837.45300
8.68891	2.15943	3774.12700
8.72367	2.15857	3830.45600
8.75843	2.16321	3833.95500
8.79318	2.15705	3770.68000
8.82793	2.15916	3830.45600
8.86269	2.15643	3826.95800
8.89745	2.15964	3767.23300
8.93220	2.15669	3767.23300
8.96697	2.15682	3819.96200
9.00171	2.14350	3763.78600
9.03647	2.15710	3823.46000
9.07123	2.16021	3823.46000
9.10598	2.16271	3823.46000
9.14073	2.15765	3830.45600
9.17549	2.15951	3770.68000
9.21024	2.15889	3770.68000
9.24499	2.16062	3833.95500
9.27975	2.16473	3830.45600
9.31451	2.16162	3774.12700
9.34927	2.17063	3830.45600
9.38401	2.16628	3833.95500
9.41876	2.15651	3837.45300
9.45352	2.17018	3784.46600
9.48828	2.16312	3801.70000
9.52302	2.16046	3837.45300
9.55779	2.16744	3833.95500
9.59253	2.16471	3774.12700
9.62730	2.16477	3774.12700
9.66205	2.17010	3830.45600
9.69680	2.16677	3830.45600
9.73156	2.15817	3770.68000
9.76630	2.16372	3770.68000
9.80107	2.15717	3826.95800
9.83582	2.16309	3823.46000
9.87057	2.15261	3763.78600
9.90534	2.15370	3819.96200
9.94008	2.15680	3760.33900
9.97485	2.15544	3823.46000
10.00961	2.14979	3767.23300
10.04436	2.15460	3819.96200
10.07910	2.15587	3826.95800
10.11386	2.15808	3767.23300
10.14862	2.15703	3823.46000
10.18338	2.15683	3830.45600
10.21813	2.15238	3763.78600
10.25288	2.15187	3819.96200
10.28764	2.15916	3774.12700
10.32239	2.15699	3840.95100
10.35715	2.15409	3830.45600
10.39191	2.15186	3770.68000
10.42667	2.15649	3830.45600
10.46142	2.15739	3823.46000
10.49618	2.15546	3770.68000
10.53093	2.14938	3826.95800
10.56568	2.14819	3830.45600
10.60046	2.15287	3767.23300
10.63520	2.15329	3823.46000
10.66995	2.15603	3826.95800
10.70471	2.15317	3774.12700
10.73948	2.14601	3826.95800
10.77422	2.15473	3833.95500
10.80898	2.15824	3833.95500
10.84374	2.16034	3774.12700
10.87849	2.15922	3774.12700
10.91325	2.15919	3837.45300
10.94800	2.15510	3830.45600
10.98276	2.15356	3770.68000
11.01751	2.14702	3819.96200
11.05228	2.14749	3830.45600
11.08705	2.15170	3774.12700
11.12180	2.15327	3794.80700
11.15654	2.15014	3830.45600
11.19129	2.15331	3770.68000
11.22605	2.15529	3826.95800
11.26081	2.15673	3830.45600
11.29555	2.15148	3774.12700
11.33033	2.15380	3774.12700
11.36507	2.15401	3830.45600
11.39983	2.14538	3833.95500
11.43459	2.15530	3777.57300
11.46934	2.14965	3774.12700
11.50410	2.15246	3826.95800
11.53885	2.15300	3770.68000
11.57360	2.14876	3774.12700
11.60836	2.15486	3826.95800
11.64312	2.15222	3826.95800
11.67786	2.14323	3770.68000
11.71263	2.15049	3830.45600
11.74738	2.15596	3830.45600
11.78214	2.15207	3770.68000
11.81690	2.15392	3774.12700
11.85164	2.14966	3830.45600
11.88641	2.14416	3830.45600
11.92116	2.14836	3770.68000
11.95591	2.15080	3837.45300
11.99067	2.14953	3830.45600
