Time (s)   Thrust (N)   RPM
0.00026	2.73862	3991.07100
0.07696	2.29705	3675.42600
0.11168	1.93471	3433.77900
0.14642	1.66424	3215.93200
0.18117	1.44631	3054.81900
0.21592	1.27490	2881.19600
0.25068	1.13930	2712.05300
0.28544	1.01215	2616.47700
0.32019	0.92383	2478.29800
0.35497	0.84121	2369.79100
0.38970	0.79539	2326.06100
0.42446	0.73206	2249.09800
0.45921	0.68800	2196.69100
0.49397	0.64015	2091.34600
0.52873	0.60376	2063.41900
0.56348	0.57498	2012.86700
0.59824	0.55150	1996.87500
0.63299	0.52940	1925.55100
0.66776	0.51284	1917.18700
0.70251	0.49404	1879.68700
0.73727	0.46880	1856.25000
0.77203	0.45823	1860.65000
0.80679	0.45158	1790.62500
0.84154	0.44405	1776.56200
0.87630	0.43473	1793.68600
0.91107	0.42416	1774.55300
0.94582	0.41621	1764.98700
0.98058	0.41116	1750.63700
1.01533	0.40900	1741.07100
1.05010	0.40364	1731.50500
1.08484	0.39610	1752.92900
1.11961	0.39304	1707.58900
1.15436	0.39155	1743.16400
1.18912	0.38736	1738.28100
1.22387	0.38522	1728.51500
1.25864	0.38173	1723.63200
1.29339	0.38203	1683.67300
1.32814	0.37765	1678.89000
1.36290	0.37752	1708.98400
1.39766	0.37745	1674.10700
1.43241	0.37725	1704.10100
1.46718	0.37690	1704.10100
1.50193	0.37715	1699.21800
1.53669	0.37718	1664.54000
1.57146	0.37527	1699.21800
1.60621	0.37691	1664.54000
1.64097	0.37689	1694.33600
1.67573	0.37529	1689.45300
1.71049	0.37250	1654.97400
1.74525	0.37019	1684.57000
1.78000	0.37028	1684.57000
1.81475	0.36976	1650.19100
1.84952	0.37399	1689.45300
1.88428	0.37271	1684.57000
1.91903	0.37319	1650.19100
1.95378	0.37529	1650.19100
1.98855	0.37411	1684.57000
2.02330	0.37407	1684.57000
2.05805	0.37281	1645.40800
2.09282	0.37077	1645.40800
2.12757	0.36809	1679.68700
2.16233	0.36826	1684.57000
2.19708	0.37078	1684.57000
2.23184	0.37213	1650.19100
2.26659	0.37192	1679.68700
2.30136	0.37083	1684.57000
2.33610	0.37121	1679.68700
2.37086	0.37126	1684.57000
2.40562	0.37119	1650.19100
2.44038	0.36558	1684.57000
2.47513	0.36881	1684.57000
2.50989	0.36605	1684.57000
2.54464	0.37088	1679.68700
2.57940	0.36994	1645.40800
2.61415	0.37273	1684.57000
2.64891	0.37259	1684.57000
2.68366	0.37038	1684.57000
2.71842	0.37000	1679.68700
2.75317	0.37015	1645.40800
2.78794	0.36934	1645.40800
2.82269	0.36700	1679.68700
2.85744	0.36769	1674.80400
2.89220	0.37071	1679.68700
2.92694	0.37155	1650.19100
2.96171	0.37317	1684.57000
2.99646	0.37140	1679.68700
3.03121	0.36962	1679.68700
3.06596	0.37171	1679.68700
3.10072	0.37002	1650.19100
3.13548	0.36809	1679.68700
3.17023	0.36705	1679.68700
3.20500	0.37334	1684.57000
3.23975	0.36700	1684.57000
3.27451	0.37423	1645.40800
3.30926	0.37192	1689.45300
3.34402	0.37708	1684.57000
3.37877	0.37192	1684.57000
3.41352	0.37360	1650.19100
3.44829	0.36770	1650.19100
3.48303	0.36939	1684.57000
3.51779	0.37005	1684.57000
3.55254	0.37413	1684.57000
3.58729	0.37130	1650.19100
3.62205	0.37451	1684.57000
3.65681	0.37571	1684.57000
3.69157	0.37568	1689.45300
3.72631	0.37402	1654.97400
3.76107	0.37342	1689.45300
3.79583	0.37165	1684.57000
3.83059	0.37156	1684.57000
3.86534	0.37304	1654.97400
3.90010	0.37638	1684.57000
3.93485	0.37631	1684.57000
3.96961	0.37391	1679.68700
4.00436	0.37704	1645.40800
4.03911	0.37743	1684.57000
4.07387	0.37692	1684.57000
4.10862	0.37596	1684.57000
4.14337	0.37230	1650.19100
4.17813	0.37715	1689.45300
4.21290	0.37577	1684.57000
4.24765	0.37549	1684.57000
4.28240	0.37887	1650.19100
4.31715	0.38015	1684.57000
4.35191	0.37851	1684.57000
4.38666	0.37937	1689.45300
4.42141	0.37708	1650.19100
4.45617	0.37529	1684.57000
4.49093	0.37299	1684.57000
4.52571	0.37519	1654.97400
4.56044	0.37471	1684.57000
4.59521	0.37620	1689.45300
4.62995	0.37661	1689.45300
4.66472	0.37980	1654.97400
4.69946	0.37982	1694.33600
4.73421	0.37997	1689.45300
4.76897	0.37862	1650.19100
4.80374	0.37854	1650.19100
4.83848	0.37405	1689.45300
4.87324	0.37414	1684.57000
4.90800	0.37752	1645.40800
4.94275	0.37649	1679.68700
4.97751	0.37778	1684.57000
5.01221	0.37656	1684.57000
5.04703	0.38067	1679.68700
5.08179	0.37944	1645.40800
5.11653	0.38020	1679.68700
5.15129	0.37563	1684.57000
5.18604	0.37546	1679.68700
5.22080	0.37343	1645.40800
5.25556	0.37529	1645.40800
5.29031	0.37438	1679.68700
5.32506	0.37497	1674.80400
5.35982	0.37700	1684.57000
5.39458	0.37848	1679.68700
5.42933	0.37683	1645.40800
5.46409	0.37543	1684.57000
5.49883	0.37580	1679.68700
5.53361	0.37021	1679.68700
5.56835	0.37024	1679.68700
5.60310	0.37262	1679.68700
5.63786	0.37104	1650.19100
5.67262	0.37186	1650.19100
5.70739	0.37780	1679.68700
5.74213	0.37827	1679.68700
5.77689	0.37790	1679.68700
5.81165	0.37632	1679.68700
5.84641	0.37171	1645.40800
5.88116	0.37283	1679.68700
5.91592	0.37622	1674.80400
5.95067	0.37545	1674.80400
5.98544	0.37952	1674.80400
6.02059	0.38156	2222.05500
6.05500	1.00830	3097.65600
6.08973	1.74666	3694.02900
6.12448	2.35027	4106.51400
6.15923	2.68600	4313.76600
6.19398	2.89942	4369.86000
6.22873	3.02820	4477.47500
6.26349	3.14192	4503.56000
6.29825	3.21175	4583.66300
6.33300	3.25963	4582.03100
6.36776	3.30124	4637.69500
6.40254	3.32645	4623.84300
6.43727	3.34710	4693.35900
6.47203	3.35832	4649.88400
6.50678	3.36130	4687.50000
6.54153	3.36841	4678.81900
6.57629	3.37325	4681.71300
6.61104	3.38253	4658.91700
6.64580	3.38323	4687.50000
6.68057	3.38011	4687.50000
6.71532	3.38311	4719.32900
6.75007	3.38271	4699.07400
6.78483	3.38313	4661.77600
6.81958	3.38641	4699.07400
6.85432	3.38409	4701.96700
6.88909	3.38295	4667.49200
6.92385	3.38560	4650.34300
6.95859	3.39338	4701.96700
6.99336	3.38682	4678.92500
7.02811	3.39544	4707.75500
7.06288	3.38066	4707.75500
7.09761	3.38246	4681.78300
7.13239	3.38337	4710.64800
7.16713	3.39089	4742.47600
7.20188	3.38992	4713.54100
7.23664	3.38751	4719.32900
7.27139	3.39136	4687.50000
7.30616	3.38404	4728.00900
7.34090	3.38756	4722.22200
7.37565	3.39089	4693.21700
7.41041	3.39049	4719.32900
7.44516	3.39208	4751.15700
7.47993	3.39297	4725.11500
7.51467	3.39174	4664.63400
7.54941	3.39288	4696.07400
7.58419	3.38841	4716.43500
7.61894	3.38791	4719.32900
7.65369	3.38826	4684.64100
7.68846	3.38484	4728.00900
7.72322	3.38844	4722.22200
7.75796	3.38433	4698.93300
7.79272	3.38934	4722.22200
7.82748	3.38863	4754.05100
7.86225	3.38569	4725.11500
7.89699	3.38335	4725.11500
7.93174	3.38227	4693.21700
7.96649	3.38160	4719.32900
8.00125	3.38853	4673.20900
8.03600	3.39047	4690.35800
8.07076	3.38237	4730.90300
8.10553	3.38204	4701.79100
8.14026	3.37648	4730.90300
8.17502	3.38537	4725.11500
8.20978	3.39524	4704.64900
8.24454	3.39083	4733.79600
8.27929	3.38821	4676.06700
8.31406	3.38269	4701.79100
8.34879	3.38674	4736.69000
8.38354	3.38317	4733.79600
8.41830	3.37752	4762.73100
8.45305	3.38383	4678.92500
8.48781	3.38547	4704.64900
8.52257	3.39150	4676.06700
8.55733	3.38438	4733.79600
8.59208	3.37275	4704.64900
8.62683	3.37097	4728.00900
8.66159	3.38962	4730.90300
8.69635	3.38605	4704.64900
8.73111	3.38412	4730.90300
8.76587	3.36985	4693.21700
8.80062	3.37834	4736.69000
8.83536	3.38567	4728.00900
8.87013	3.39075	4701.79100
8.90488	3.38978	4730.90300
8.93964	3.37719	4670.35000
8.97440	3.38234	4698.93300
9.00915	3.38658	4728.00900
9.04391	3.38617	4667.49200
9.07868	3.38480	4701.79100
9.11343	3.38696	4725.11500
9.14820	3.38343	4698.93300
9.18293	3.38875	4725.11500
9.21770	3.38572	4725.11500
9.25245	3.38643	4696.07400
9.28721	3.38937	4719.32900
9.32197	3.38684	4722.22200
9.35672	3.38749	4751.15700
9.39149	3.39239	4664.63400
9.42624	3.38533	4687.50000
9.46099	3.38760	4722.22200
9.49576	3.39880	4722.22200
9.53051	3.39593	4696.07400
9.56528	3.39885	4719.32900
9.60003	3.39540	4719.32900
9.63478	3.39479	4745.37000
9.66954	3.39855	4656.05900
9.70429	3.39369	4716.43500
9.73906	3.39980	4690.35800
9.77382	3.39264	4713.54100
9.80856	3.39598	4707.75500
9.88798	3.39564	4673.20900
9.92273	3.40133	4701.96700
10.00215	3.40521	4704.86100
10.03690	3.39415	4730.90300
10.07167	3.40072	4707.75500
10.10641	3.40224	4730.90300
10.14117	3.40906	4707.75500
10.17593	3.40362	4701.96700
10.21068	3.40404	4739.58300
10.24545	3.39340	4701.96700
10.28020	3.40699	4701.96700
10.31496	3.39942	4736.69000
10.34972	3.41073	4699.07400
10.38448	3.39534	4699.07400
10.41922	3.39499	4739.58300
10.45399	3.39432	4704.86100
10.48875	3.40395	4678.92500
10.52351	3.39214	4701.96700
10.55826	3.39868	4701.96700
10.59301	3.39548	4676.06700
10.62778	3.39647	4701.96700
10.66252	3.39638	4701.96700
10.69728	3.40597	4725.11500
10.73204	3.40464	4699.07400
10.76681	3.40440	4699.07400
10.80155	3.40221	4733.79600
10.83631	3.40433	4704.86100
10.87108	3.40657	4730.90300
10.90584	3.41037	4701.96700
10.94058	3.40985	4693.28700
10.97535	3.41364	4728.00900
11.01010	3.40836	4693.28700
11.04486	3.40762	4693.28700
11.07960	3.41152	4664.63400
11.11437	3.41058	4746.09400
11.14912	3.41132	4690.39300
11.18388	3.41159	4710.64800
11.21863	3.40838	4687.50000
11.25339	3.40562	4653.20100
11.28815	3.40828	4687.50000
11.32290	3.40832	4684.60600
11.35766	3.41202	4656.05900
11.39243	3.41651	4681.71300
11.42717	3.40788	4684.60600
11.46194	3.40692	4650.34300
11.49669	3.40911	4684.60600
11.53146	3.41643	4684.60600
11.56620	3.40760	4707.75500
11.60097	3.40972	4746.09400
11.63572	3.40984	4684.60600
11.67048	3.41154	4690.39300
11.70524	3.41086	4684.60600
11.73998	3.41845	4713.54100
11.77474	3.41416	4687.50000
11.80950	3.40750	4740.23400
11.84427	3.40710	4716.43500
11.87902	3.41032	4681.71300
11.91378	3.41548	4687.50000
11.94852	3.41095	4656.05900
11.98329	3.40966	4684.60600
