Time (s)   roll (deg)   Delta
0.00039	-7.90988	11.27051
0.00460	-7.93185	11.27051
0.00880	-7.90988	11.27051
0.01297	-7.93185	11.27051
0.01715	-7.93185	11.27051
0.02132	-7.93185	11.27051
0.02550	-7.93185	11.27051
0.02983	-7.93185	11.27051
0.03413	-7.93185	11.27051
0.03833	-7.95382	11.27051
0.04253	-7.95382	11.27051
0.04672	-7.95382	11.27051
0.05092	-7.97580	11.27051
0.05513	-7.97580	11.27051
0.06091	-7.97580	11.27051
0.06520	-7.97580	11.27051
0.06941	-7.97580	11.27051
0.07360	-7.99777	11.27051
0.07780	-7.99777	11.27051
0.08200	-7.99777	11.27051
0.08623	-7.99777	11.27051
0.09201	-8.01974	11.27051
0.09630	-8.04172	11.27051
0.10064	-8.04172	11.27051
0.10486	-8.04172	11.27051
0.10905	-8.04172	11.27051
0.11325	-8.06369	11.27051
0.11745	-8.06369	11.27051
0.12202	-8.08566	11.27051
0.12635	-8.08566	11.27051
0.13057	-8.08566	11.27051
0.13477	-8.10763	11.27051
0.13896	-8.12961	11.27051
0.14316	-8.15158	11.27051
0.14735	-8.15158	11.27051
0.15183	-8.15158	11.27051
0.15618	-8.15158	11.27051
0.16041	-8.17355	11.27051
0.16461	-8.19552	11.27051
0.16881	-8.21750	11.27051
0.17300	-8.23947	11.27051
0.17719	-8.23947	11.27051
0.18139	-8.23947	11.27051
0.18593	-8.26144	11.27051
0.19011	-8.28341	11.27051
0.19430	-8.30539	11.27051
0.19856	-8.30539	11.27051
0.20288	-8.32736	11.27051
0.20708	-8.32736	11.27051
0.21127	-8.34933	11.27051
0.21553	-8.39328	11.27051
0.21979	-8.41525	11.27051
0.22399	-8.41525	11.27051
0.22817	-8.45920	11.27051
0.23235	-8.48117	11.27051
0.23652	-8.48117	11.27051
0.24070	-8.50314	11.27051
0.24494	-8.54709	11.27051
0.24921	-8.54709	11.27051
0.25341	-8.59103	11.27051
0.25759	-8.59103	11.27051
0.26176	-8.61300	11.27051
0.26595	-8.63498	11.27051
0.27012	-8.65695	11.27051
0.27430	-8.70089	11.27051
0.27859	-8.72287	11.27051
0.28278	-8.74484	11.27051
0.28697	-8.74484	11.27051
0.29119	-8.78879	11.27051
0.29538	-8.81076	11.27051
0.29956	-8.83273	11.27051
0.30385	-8.89865	11.27051
0.30829	-8.89865	11.27051
0.31250	-8.92062	11.27051
0.31668	-8.92062	11.27051
0.32087	-8.98654	11.27051
0.32506	-9.03048	11.27051
0.32924	-9.05246	11.27051
0.33343	-9.09640	11.27051
0.33771	-9.11838	11.27051
0.34202	-9.11838	11.27051
0.34624	-9.16232	11.27051
0.35044	-9.20627	11.27051
0.35465	-9.22824	11.27051
0.35885	-9.27218	11.27051
0.36306	-9.31613	11.27051
0.36893	-9.36007	11.27051
0.37322	-9.40402	11.27051
0.37743	-9.40402	11.27051
0.38164	-9.44797	11.27051
0.38585	-9.49191	11.27051
0.39006	-9.53586	11.27051
0.39426	-9.57980	11.27051
0.40062	-9.62375	11.27051
0.40487	-9.66769	11.27051
0.40916	-9.71164	11.27051
0.41335	-9.75558	11.27051
0.41754	-9.75558	11.27051
0.42172	-9.79953	11.27051
0.42591	-9.86545	11.27051
0.43017	-9.90939	11.27051
0.43444	-9.95334	11.27051
0.43866	-9.99728	11.27051
0.44284	-9.99728	11.27051
0.44703	-10.04123	11.27051
0.45121	-10.10714	11.27051
0.45539	-10.15109	11.27051
0.45965	-10.19504	11.27051
0.46393	-10.23898	11.27051
0.46813	-10.23898	11.27051
0.47232	-10.30490	11.27051
0.47650	-10.34884	11.27051
0.48069	-10.39279	11.27051
0.48487	-10.45871	11.27051
0.48907	-10.50265	11.27051
0.49338	-10.56857	11.27051
0.49759	-10.56857	11.27051
0.50177	-10.61252	11.27051
0.50597	-10.67843	11.27051
0.51026	-10.72238	11.27051
0.51445	-10.78830	11.27051
0.51863	-10.78830	11.27051
0.52305	-10.87619	11.27051
0.52725	-10.87619	11.27051
0.53144	-10.94211	11.27051
0.53562	-11.00802	11.27051
0.53981	-11.05197	11.27051
0.54399	-11.11789	11.27051
0.54817	-11.11789	11.27051
0.55244	-11.18381	11.27051
0.55670	-11.22775	11.27051
0.56089	-11.29367	11.27051
0.56507	-11.35959	11.27051
0.56926	-11.40353	11.27051
0.57344	-11.46945	11.27051
0.57762	-11.46945	11.27051
0.58186	-11.51339	11.27051
0.58615	-11.57931	11.27051
0.59037	-11.64523	11.27051
0.59456	-11.68918	11.27051
0.59875	-11.75509	11.27051
0.60293	-11.75509	11.27051
0.60712	-11.82101	11.27051
0.61141	-11.86496	11.27051
0.61570	-11.93088	11.27051
0.61990	-11.99679	11.27051
0.62409	-12.06271	11.27051
0.62827	-12.06271	11.27051
0.63246	-12.10666	11.27051
0.63664	-12.17257	11.27051
0.64083	-12.23849	11.27051
0.64527	-12.30441	11.27051
0.64948	-12.34836	11.27051
0.65367	-12.34836	11.27051
0.65786	-12.41427	11.27051
0.66205	-12.48019	11.27051
0.66624	-12.54611	11.27051
0.67042	-12.61203	11.27051
0.67469	-12.67795	11.27051
0.67896	-12.67795	11.27051
0.68315	-12.72189	11.27051
0.68736	-12.78781	11.27051
0.69156	-12.85373	11.27051
0.69575	-12.89767	11.27051
0.69994	-12.96359	11.27051
0.70419	-13.02951	11.27051
0.70848	-13.02951	11.27051
0.71278	-13.09543	11.27051
0.71696	-13.13937	11.27051
0.72115	-13.20529	11.27051
0.72533	-13.27121	11.27051
0.72952	-13.27121	11.27051
0.73370	-13.31515	11.27051
0.73801	-13.38107	11.27051
0.74223	-13.44699	11.27051
0.74641	-13.49093	11.27051
0.75060	-13.55685	11.27051
0.75478	-13.62277	11.27051
0.75897	-13.62277	11.27051
0.76315	-13.68869	11.27051
0.76757	-13.75461	11.27051
0.77178	-13.79855	11.27051
0.77597	-13.86447	11.27051
0.78015	-13.90841	11.27051
0.78434	-13.97433	11.27051
0.78854	-13.97433	11.27051
0.79273	-14.04025	11.27051
0.79700	-14.08420	11.27051
0.80127	-14.15011	11.27051
0.80547	-14.21603	11.27051
0.80965	-14.25998	11.27051
0.81395	-14.25998	11.27051
0.81814	-14.32589	11.27051
0.82232	-14.36984	11.27051
0.82656	-14.41379	11.27051
0.83084	-14.47970	11.27051
0.83504	-14.52365	11.27051
0.83923	-14.52365	11.27051
0.84341	-14.58957	11.27051
0.84760	-14.65548	11.27051
0.85178	-14.72140	11.27051
0.85596	-14.76535	11.27051
0.86025	-14.80929	11.27051
0.86445	-14.87521	11.27051
0.86863	-14.87521	11.27051
0.87282	-14.91916	11.27051
0.87700	-14.98507	11.27051
0.88119	-15.02902	11.27051
0.88537	-15.09494	11.27051
0.88981	-15.13888	11.27051
0.89403	-15.13888	11.27051
0.89822	-15.20480	11.27051
0.90241	-15.24875	11.27051
0.90661	-15.29269	11.27051
0.91079	-15.35861	11.27051
0.91508	-15.35861	11.27051
0.91934	-15.40256	11.27051
0.92362	-15.46847	11.27051
0.92781	-15.51242	11.27051
0.93200	-15.55636	11.27051
0.93618	-15.62228	11.27051
0.94037	-15.62228	11.27051
0.94455	-15.66623	11.27051
0.94878	-15.71017	11.27051
0.95306	-15.75412	11.27051
0.95727	-15.79806	11.27051
0.96145	-15.84201	11.27051
0.96564	-15.88595	11.27051
0.96982	-15.88595	11.27051
0.97401	-15.92990	11.27051
0.97820	-15.99582	11.27051
0.98249	-16.03976	11.27051
0.98669	-16.08371	11.27051
0.99089	-16.12765	11.27051
0.99507	-16.17160	11.27051
0.99927	-16.17160	11.27051
1.00345	-16.21554	11.27051
1.00763	-16.25949	11.27051
1.01205	-16.30343	11.27051
1.01636	-16.34738	11.27051
1.02054	-16.34738	11.27051
1.02473	-16.39132	11.27051
1.02892	-16.43527	11.27051
1.03310	-16.47922	11.27051
1.03728	-16.50119	11.27051
1.04154	-16.54513	11.27051
1.04581	-16.58908	11.27051
1.05001	-16.58908	11.27051
1.05419	-16.61105	11.27051
1.05838	-16.65500	11.27051
1.06257	-16.69894	11.27051
1.06675	-16.74289	11.27051
1.07098	-16.76486	11.27051
1.07526	-16.80881	11.27051
1.07951	-16.80881	11.27051
1.08370	-16.85275	11.27051
1.08790	-16.87472	11.27051
1.09210	-16.91867	11.27051
1.09630	-16.94064	11.27051
1.10049	-16.98459	11.27051
1.10480	-16.98459	11.27051
1.10903	-17.02853	11.27051
1.11324	-17.05050	11.27051
1.11760	-17.09445	11.27051
1.12179	-17.11642	11.27051
1.12601	-17.13839	11.27051
1.13022	-17.16037	11.27051
1.13478	-17.16037	11.27051
1.13900	-17.20431	11.27051
1.14319	-17.22629	11.27051
1.14738	-17.27023	11.27051
1.15156	-17.29220	11.27051
1.15575	-17.31418	11.27051
1.15993	-17.31418	11.27051
1.16420	-17.33615	11.27051
1.16846	-17.35812	11.27051
1.17266	-17.40207	11.27051
1.17684	-17.42404	11.27051
1.18103	-17.42404	11.27051
1.18521	-17.44601	11.27051
1.18941	-17.46798	11.27051
1.19367	-17.48996	11.27051
1.19797	-17.51193	11.27051
1.20217	-17.55588	11.27051
1.20639	-17.55588	11.27051
1.21058	-17.55588	11.27051
1.21476	-17.57785	11.27051
1.21905	-17.59982	11.27051
1.22324	-17.62179	11.27051
1.22755	-17.64377	11.27051
1.23175	-17.66574	11.27051
1.23593	-17.66574	11.27051
1.24012	-17.66574	11.27051
1.24430	-17.68771	11.27051
1.24849	-17.70968	11.27051
1.25267	-17.73166	11.27051
1.25710	-17.73166	11.27051
1.26130	-17.75363	11.27051
1.26548	-17.75363	11.27051
1.26966	-17.77560	11.27051
1.27385	-17.77560	11.27051
1.27804	-17.79757	11.27051
1.28223	-17.81955	11.27051
1.28649	-17.81955	11.27051
1.29077	-17.81955	11.27051
1.29498	-17.84152	11.27051
1.29917	-17.84152	11.27051
1.30336	-17.86349	11.27051
1.30755	-17.88547	11.27051
1.31174	-17.86349	11.27051
1.31599	-17.86349	11.27051
1.32037	-17.88547	11.27051
1.32459	-17.88547	11.27051
1.32878	-17.90744	11.27051
1.33297	-17.90744	11.27051
1.33716	-17.90744	11.27051
1.34134	-17.92941	11.27051
1.34553	-17.92941	11.27051
1.34983	-17.92941	11.27051
1.35404	-17.92941	11.27051
1.35823	-17.92941	11.27051
1.36242	-17.95138	11.27051
1.36660	-17.95138	11.27051
1.37079	-17.95138	11.27051
1.37497	-17.92941	11.27051
1.37941	-17.95138	11.27051
1.38361	-17.95138	11.27051
1.38781	-17.95138	11.27051
1.39201	-17.95138	11.27051
1.39619	-17.95138	11.27051
1.40038	-17.95138	11.27051
1.40457	-17.95138	11.27051
1.40885	-17.95138	11.27051
1.41312	-17.95138	11.27051
1.41731	-17.95138	11.27051
1.42162	-17.95138	11.27051
1.42581	-17.95138	11.27051
1.43001	-17.95138	11.27051
1.43420	-17.95138	11.27051
1.43849	-17.95138	11.27051
1.44278	-17.95138	11.27051
1.44697	-17.95138	11.27051
1.45116	-17.95138	11.27051
1.45535	-17.92941	11.27051
1.45953	-17.92941	11.27051
1.46371	-17.92941	11.27051
1.46790	-17.92941	11.27051
1.47221	-17.90744	11.27051
1.47641	-17.90744	11.27051
1.48060	-17.90744	11.27051
1.48478	-17.90744	11.27051
1.48899	-17.88547	11.27051
1.49317	-17.88547	11.27051
1.49736	-17.88547	11.27051
1.50180	-17.86349	11.27051
1.50603	-17.86349	11.27051
1.51022	-17.86349	11.27051
1.51441	-17.86349	11.27051
1.51859	-17.84152	11.27051
1.52288	-17.81955	11.27051
1.52707	-17.81955	11.27051
1.53132	-17.81955	11.27051
1.53559	-17.81955	11.27051
1.53979	-17.79757	11.27051
1.54398	-17.79757	11.27051
1.54816	-17.77560	11.27051
1.55235	-17.75363	11.27051
1.55653	-17.75363	11.27051
1.56078	-17.75363	11.27051
1.56506	-17.73166	11.27051
1.56926	-17.73166	11.27051
1.57345	-17.70968	11.27051
1.57763	-17.70968	11.27051
1.58182	-17.68771	11.27051
1.58601	-17.66574	11.27051
1.59022	-17.66574	11.27051
1.59453	-17.64377	11.27051
1.59874	-17.62179	11.27051
1.60292	-17.62179	11.27051
1.60711	-17.62179	11.27051
1.61130	-17.59982	11.27051
1.61548	-17.59982	11.27051
1.61966	-17.55588	11.27051
1.62422	-17.53390	11.27051
1.62842	-17.53390	11.27051
1.63260	-17.51193	11.27051
1.63679	-17.51193	11.27051
1.64097	-17.48996	11.27051
1.64516	-17.46798	11.27051
1.64934	-17.44601	11.27051
1.65360	-17.42404	11.27051
1.65787	-17.40207	11.27051
1.66207	-17.40207	11.27051
1.66626	-17.38009	11.27051
1.67044	-17.35812	11.27051
1.67463	-17.33615	11.27051
1.67881	-17.31418	11.27051
1.68305	-17.31418	11.27051
1.68733	-17.29220	11.27051
1.69155	-17.24826	11.27051
1.69574	-17.24826	11.27051
1.69993	-17.22629	11.27051
1.70412	-17.20431	11.27051
1.70831	-17.20431	11.27051
1.71250	-17.16037	11.27051
1.71686	-17.13839	11.27051
1.72107	-17.11642	11.27051
1.72538	-17.09445	11.27051
1.72957	-17.07248	11.27051
1.73376	-17.05050	11.27051
1.73797	-17.05050	11.27051
1.74216	-17.02853	11.27051
1.74661	-16.98459	11.27051
1.75082	-16.96261	11.27051
1.75501	-16.94064	11.27051
1.75920	-16.91867	11.27051
1.76338	-16.89670	11.27051
1.76756	-16.89670	11.27051
1.77175	-16.87472	11.27051
1.77601	-16.83078	11.27051
1.78028	-16.80881	11.27051
1.78447	-16.78683	11.27051
1.78867	-16.74289	11.27051
1.79287	-16.74289	11.27051
1.79705	-16.72091	11.27051
1.80124	-16.69894	11.27051
1.80551	-16.67697	11.27051
1.80979	-16.63302	11.27051
1.81400	-16.61105	11.27051
1.81819	-16.61105	11.27051
1.82239	-16.58908	11.27051
1.82667	-16.54513	11.27051
1.83086	-16.52316	11.27051
1.83504	-16.50119	11.27051
1.83934	-16.45724	11.27051
1.84354	-16.43527	11.27051
1.84772	-16.43527	11.27051
1.85190	-16.41330	11.27051
1.85609	-16.36935	11.27051
1.86027	-16.34738	11.27051
1.86446	-16.30343	11.27051
1.86888	-16.28146	11.27051
1.87310	-16.28146	11.27051
1.87729	-16.25949	11.27051
1.88147	-16.21554	11.27051
1.88566	-16.19357	11.27051
1.88986	-16.17160	11.27051
1.89406	-16.14963	11.27051
1.89832	-16.10568	11.27051
1.90260	-16.10568	11.27051
1.90681	-16.08371	11.27051
1.91100	-16.03976	11.27051
1.91518	-16.01779	11.27051
1.91936	-15.97384	11.27051
1.92355	-15.97384	11.27051
1.92791	-15.95187	11.27051
1.93218	-15.90793	11.27051
1.93638	-15.88595	11.27051
1.94057	-15.86398	11.27051
1.94476	-15.82004	11.27051
1.94894	-15.82004	11.27051
1.95313	-15.77609	11.27051
1.95731	-15.75412	11.27051
1.96161	-15.73214	11.27051
1.96582	-15.68820	11.27051
1.97001	-15.66623	11.27051
1.97420	-15.62228	11.27051
1.97839	-15.62228	11.27051
1.98257	-15.60031	11.27051
1.98676	-15.57834	11.27051
1.99121	-15.53439	11.27051
1.99543	-15.51242	11.27051
1.99962	-15.46847	11.27051
2.00381	-15.46847	11.27051
2.00801	-15.44650	11.27051
2.01219	-15.40256	11.27051
2.01638	-15.38058	11.27051
2.02065	-15.35861	11.27051
2.02492	-15.31466	11.27051
2.02922	-15.31466	11.27051
2.03341	-15.29269	11.27051
2.03760	-15.27072	11.27051
2.04179	-15.22677	11.27051
2.04598	-15.18283	11.27051
2.05025	-15.16086	11.27051
2.05454	-15.16086	11.27051
2.05874	-15.11691	11.27051
2.06293	-15.09494	11.27051
2.06711	-15.07297	11.27051
2.07130	-15.02902	11.27051
2.07548	-15.00705	11.27051
2.07967	-14.98507	11.27051
2.08397	-14.98507	11.27051
2.08818	-14.94113	11.27051
2.09238	-14.91916	11.27051
2.09657	-14.87521	11.27051
2.10076	-14.85324	11.27051
2.10494	-14.83127	11.27051
2.10913	-14.83127	11.27051
2.11355	-14.78732	11.27051
2.11775	-14.76535	11.27051
2.12195	-14.74338	11.27051
2.12614	-14.72140	11.27051
2.13043	-14.67746	11.27051
2.13461	-14.67746	11.27051
2.13879	-14.65548	11.27051
2.14307	-14.63351	11.27051
2.14734	-14.58957	11.27051
2.15154	-14.56759	11.27051
2.15572	-14.54562	11.27051
2.15991	-14.52365	11.27051
2.16410	-14.52365	11.27051
2.16828	-14.47970	11.27051
2.17253	-14.45773	11.27051
2.17681	-14.43576	11.27051
2.18101	-14.39181	11.27051
2.18519	-14.36984	11.27051
2.18940	-14.36984	11.27051
2.19359	-14.34787	11.27051
2.19778	-14.32589	11.27051
2.20198	-14.30392	11.27051
2.20631	-14.25998	11.27051
2.21051	-14.25998	11.27051
2.21470	-14.23800	11.27051
2.21888	-14.21603	11.27051
2.22308	-14.19406	11.27051
2.22727	-14.15011	11.27051
2.23156	-14.15011	11.27051
2.23599	-14.10617	11.27051
2.24021	-14.10617	11.27051
2.24440	-14.08420	11.27051
2.24858	-14.06222	11.27051
2.25277	-14.04025	11.27051
2.25695	-14.01828	11.27051
2.26114	-13.99631	11.27051
2.26541	-13.99631	11.27051
2.26967	-13.95236	11.27051
2.27387	-13.95236	11.27051
2.27806	-13.90841	11.27051
2.28224	-13.88644	11.27051
2.28643	-13.86447	11.27051
2.29063	-13.84250	11.27051
2.29490	-13.84250	11.27051
2.29918	-13.82052	11.27051
2.30337	-13.79855	11.27051
2.30757	-13.77658	11.27051
2.31177	-13.75461	11.27051
2.31595	-13.73263	11.27051
2.32014	-13.71066	11.27051
2.32433	-13.71066	11.27051
2.32862	-13.68869	11.27051
2.33294	-13.66672	11.27051
2.33715	-13.64474	11.27051
2.34135	-13.62277	11.27051
2.34555	-13.62277	11.27051
2.34973	-13.60080	11.27051
2.35392	-13.57882	11.27051
2.35834	-13.55685	11.27051
2.36255	-13.55685	11.27051
2.36674	-13.53488	11.27051
2.37092	-13.51291	11.27051
2.37511	-13.51291	11.27051
2.37930	-13.49093	11.27051
2.38348	-13.46896	11.27051
2.38776	-13.44699	11.27051
2.39205	-13.42502	11.27051
2.39625	-13.40304	11.27051
2.40045	-13.40304	11.27051
2.40466	-13.40304	11.27051
2.40885	-13.38107	11.27051
2.41304	-13.35910	11.27051
2.41731	-13.33713	11.27051
2.42158	-13.33713	11.27051
2.42581	-13.31515	11.27051
2.43001	-13.31515	11.27051
2.43430	-13.29318	11.27051
2.43849	-13.27121	11.27051
2.44268	-13.24923	11.27051
2.44686	-13.22726	11.27051
2.45115	-13.22726	11.27051
2.45537	-13.22726	11.27051
2.45956	-13.20529	11.27051
2.46374	-13.18332	11.27051
2.46793	-13.18332	11.27051
2.47212	-13.16134	11.27051
2.47630	-13.16134	11.27051
2.48069	-13.16134	11.27051
2.48491	-13.13937	11.27051
2.48910	-13.13937	11.27051
2.49330	-13.11740	11.27051
2.49750	-13.09543	11.27051
2.50169	-13.07345	11.27051
2.50587	-13.07345	11.27051
2.51017	-13.07345	11.27051
2.51443	-13.05148	11.27051
2.51863	-13.05148	11.27051
2.52282	-13.02951	11.27051
2.52701	-13.02951	11.27051
2.53120	-13.00754	11.27051
2.53548	-13.00754	11.27051
2.53974	-12.98556	11.27051
2.54400	-12.98556	11.27051
2.54821	-12.96359	11.27051
2.55239	-12.96359	11.27051
2.55658	-12.96359	11.27051
2.56077	-12.96359	11.27051
2.56495	-12.94162	11.27051
2.56914	-12.91964	11.27051
2.57345	-12.91964	11.27051
2.57766	-12.91964	11.27051
2.58185	-12.91964	11.27051
2.58604	-12.91964	11.27051
2.59025	-12.89767	11.27051
2.59444	-12.87570	11.27051
2.59863	-12.87570	11.27051
2.60304	-12.87570	11.27051
2.60726	-12.87570	11.27051
2.61145	-12.85373	11.27051
2.61565	-12.85373	11.27051
2.61983	-12.85373	11.27051
2.62402	-12.85373	11.27051
2.62820	-12.85373	11.27051
2.63248	-12.83175	11.27051
2.63684	-12.83175	11.27051
2.64104	-12.83175	11.27051
2.64523	-12.80978	11.27051
2.64941	-12.83175	11.27051
2.65360	-12.80978	11.27051
2.65778	-12.80978	11.27051
2.66205	-12.80978	11.27051
2.66631	-12.80978	11.27051
2.67051	-12.80978	11.27051
2.67470	-12.78781	11.27051
2.67888	-12.78781	11.27051
2.68307	-12.78781	11.27051
2.68725	-12.78781	11.27051
2.69145	-12.78781	11.27051
2.69575	-12.78781	11.27051
2.69996	-12.78781	11.27051
2.70415	-12.76584	11.27051
2.70834	-12.78781	11.27051
2.71252	-12.76584	11.27051
2.71671	-12.76584	11.27051
2.72090	-12.76584	11.27051
2.72528	-12.78781	11.27051
2.72950	-12.76584	11.27051
2.73369	-12.76584	11.27051
2.73800	-12.76584	11.27051
2.74218	-12.76584	11.27051
2.74637	-12.76584	11.27051
2.75055	-12.76584	11.27051
2.75483	-12.76584	11.27051
2.75907	-12.76584	11.27051
2.76327	-12.76584	11.27051
2.76745	-12.76584	11.27051
2.77164	-12.76584	11.27051
2.77583	-12.76584	11.27051
2.78001	-12.76584	11.27051
2.78426	-12.78781	11.27051
2.78852	-12.78781	11.27051
2.79275	-12.76584	11.27051
2.79695	-12.76584	11.27051
2.80116	-12.78781	11.27051
2.80535	-12.78781	11.27051
2.80954	-12.78781	11.27051
2.81372	-12.78781	11.27051
2.81803	-12.78781	11.27051
2.82225	-12.78781	11.27051
2.82644	-12.78781	11.27051
2.83063	-12.78781	11.27051
2.83481	-12.80978	11.27051
2.83910	-12.80978	11.27051
2.84328	-12.80978	11.27051
2.84767	-12.80978	11.27051
2.85188	-12.80978	11.27051
2.85607	-12.83175	11.27051
2.86026	-12.83175	11.27051
2.86444	-12.83175	11.27051
2.86863	-12.85373	11.27051
2.87281	-12.85373	11.27051
2.87710	-12.85373	11.27051
2.88134	-12.85373	11.27051
2.88554	-12.87570	11.27051
2.88973	-12.87570	11.27051
2.89393	-12.87570	11.27051
2.89808	-12.89767	11.27051
2.90227	-12.89767	11.27051
2.90653	-12.89767	11.27051
2.91080	-12.89767	11.27051
2.91502	-12.91964	11.27051
2.91920	-12.91964	11.27051
2.92339	-12.94162	11.27051
2.92758	-12.94162	11.27051
2.93176	-12.94162	11.27051
2.93595	-12.94162	11.27051
2.94035	-12.96359	11.27051
2.94456	-12.98556	11.27051
2.94875	-12.98556	11.27051
2.95294	-12.98556	11.27051
2.95712	-12.98556	11.27051
2.96131	-13.00754	11.27051
2.96549	-13.00754	11.27051
2.96987	-13.02951	11.27051
2.97410	-13.02951	11.27051
2.97829	-13.02951	11.27051
2.98248	-13.02951	11.27051
2.98666	-13.05148	11.27051
2.99087	-13.07345	11.27051
2.99506	-13.07345	11.27051
2.99935	-13.07345	11.27051
3.00360	-13.09543	11.27051
3.00781	-13.09543	11.27051
3.01200	-13.11740	11.27051
3.01619	-13.11740	11.27051
3.02038	-13.13937	11.27051
3.02457	-13.13937	11.27051
3.02882	-13.16134	11.27051
3.03308	-13.16134	11.27051
3.03729	-13.18332	11.27051
3.04159	-13.18332	11.27051
3.04578	-13.18332	11.27051
3.04997	-13.20529	11.27051
3.05416	-13.22726	11.27051
3.05835	-13.22726	11.27051
3.06263	-13.22726	11.27051
3.06684	-13.24923	11.27051
3.07105	-13.24923	11.27051
3.07523	-13.27121	11.27051
3.07942	-13.29318	11.27051
3.08361	-13.29318	11.27051
3.08779	-13.29318	11.27051
3.09220	-13.31515	11.27051
3.09642	-13.31515	11.27051
3.10061	-13.33713	11.27051
3.10480	-13.35910	11.27051
3.10899	-13.35910	11.27051
3.11317	-13.35910	11.27051
3.11736	-13.38107	11.27051
3.12163	-13.40304	11.27051
3.12587	-13.40304	11.27051
3.13007	-13.42502	11.27051
3.13426	-13.42502	11.27051
3.13844	-13.44699	11.27051
