Time (s)   roll (deg)   Delta
0.00041	3.49393	11.27051
0.00465	3.49393	11.27051
0.00885	3.49393	11.27051
0.01304	3.49393	11.27051
0.01723	3.49393	11.27051
0.02141	3.49393	11.27051
0.02559	3.49393	11.27051
0.02992	3.49393	11.27051
0.03416	3.49393	11.27051
0.03833	3.49393	11.27051
0.04250	3.49393	11.27051
0.04666	3.47196	11.27051
0.05082	3.47196	11.27051
0.05499	3.47196	11.27051
0.05924	3.47196	11.27051
0.06351	3.47196	11.27051
0.06768	3.47196	11.27051
0.07185	3.44998	11.27051
0.07601	3.44998	11.27051
0.08018	3.44998	11.27051
0.08434	3.44998	11.27051
0.08850	3.42801	11.27051
0.09285	3.42801	11.27051
0.09704	3.40604	11.27051
0.10129	3.40604	11.27051
0.10546	3.38407	11.27051
0.10962	3.38407	11.27051
0.11378	3.36209	11.27051
0.11795	3.34012	11.27051
0.12219	3.31815	11.27051
0.12645	3.29618	11.27051
0.13065	3.27420	11.27051
0.13484	3.27420	11.27051
0.13903	3.27420	11.27051
0.14322	3.23026	11.27051
0.14741	3.20828	11.27051
0.15159	3.18631	11.27051
0.15589	3.14237	11.27051
0.16009	3.12039	11.27051
0.16427	3.12039	11.27051
0.16846	3.07645	11.27051
0.17264	3.05448	11.27051
0.17683	3.01053	11.27051
0.18101	2.96659	11.27051
0.18526	2.94461	11.27051
0.18955	2.94461	11.27051
0.19374	2.90067	11.27051
0.19792	2.85672	11.27051
0.20221	2.81278	11.27051
0.20639	2.76883	11.27051
0.21057	2.72489	11.27051
0.21476	2.72489	11.27051
0.21906	2.65897	11.27051
0.22327	2.63700	11.27051
0.22746	2.57108	11.27051
0.23164	2.50516	11.27051
0.23584	2.43924	11.27051
0.24006	2.39530	11.27051
0.24428	2.39530	11.27051
0.24872	2.32938	11.27051
0.25297	2.26346	11.27051
0.25716	2.19754	11.27051
0.26135	2.13162	11.27051
0.26553	2.08768	11.27051
0.26971	1.99979	11.27051
0.27390	1.99979	11.27051
0.27815	1.93387	11.27051
0.28244	1.86795	11.27051
0.28663	1.78006	11.27051
0.29082	1.69217	11.27051
0.29500	1.69217	11.27051
0.29919	1.62625	11.27051
0.30348	1.53836	11.27051
0.30766	1.45047	11.27051
0.31196	1.36258	11.27051
0.31616	1.27469	11.27051
0.32034	1.27469	11.27051
0.32453	1.18680	11.27051
0.32871	1.07694	11.27051
0.33291	0.98905	11.27051
0.33709	0.90116	11.27051
0.34134	0.81327	11.27051
0.34561	0.81327	11.27051
0.34980	0.70340	11.27051
0.35399	0.61551	11.27051
0.35817	0.52762	11.27051
0.36236	0.41776	11.27051
0.36654	0.30789	11.27051
0.37072	0.30789	11.27051
0.37504	0.19803	11.27051
0.37925	0.08817	11.27051
0.38344	0.00028	11.27051
0.38762	-0.13156	11.27051
0.39181	-0.21945	11.27051
0.39599	-0.32931	11.27051
0.40017	-0.32931	11.27051
0.40455	-0.43918	11.27051
0.40881	-0.54904	11.27051
0.41299	-0.68088	11.27051
0.41718	-0.79074	11.27051
0.42136	-0.92257	11.27051
0.42555	-0.92257	11.27051
0.42973	-1.03244	11.27051
0.43392	-1.16427	11.27051
0.43821	-1.25216	11.27051
0.44241	-1.38400	11.27051
0.44659	-1.51584	11.27051
0.45078	-1.51584	11.27051
0.45496	-1.64767	11.27051
0.45915	-1.77951	11.27051
0.46333	-1.91134	11.27051
0.46758	-2.04318	11.27051
0.47185	-2.17502	11.27051
0.47604	-2.28488	11.27051
0.48023	-2.28488	11.27051
0.48441	-2.41672	11.27051
0.48859	-2.54855	11.27051
0.49277	-2.70236	11.27051
0.49696	-2.83420	11.27051
0.50125	-2.96603	11.27051
0.50556	-2.96603	11.27051
0.50975	-3.11984	11.27051
0.51393	-3.27365	11.27051
0.51811	-3.40548	11.27051
0.52230	-3.51535	11.27051
0.52648	-3.66916	11.27051
0.53092	-3.82297	11.27051
0.53515	-3.82297	11.27051
0.53934	-3.95480	11.27051
0.54353	-4.10861	11.27051
0.54771	-4.26242	11.27051
0.55189	-4.41623	11.27051
0.55608	-4.41623	11.27051
0.56035	-4.57004	11.27051
0.56462	-4.72384	11.27051
0.56882	-4.87765	11.27051
0.57303	-5.03146	11.27051
0.57722	-5.18527	11.27051
0.58141	-5.18527	11.27051
0.58560	-5.33908	11.27051
0.58978	-5.49289	11.27051
0.59413	-5.66867	11.27051
0.59834	-5.82248	11.27051
0.60253	-5.97629	11.27051
0.60685	-6.10812	11.27051
0.61104	-6.10812	11.27051
0.61523	-6.26193	11.27051
0.61941	-6.41574	11.27051
0.62396	-6.59152	11.27051
0.62819	-6.74533	11.27051
0.63239	-6.89914	11.27051
0.63658	-6.89914	11.27051
0.64078	-7.07492	11.27051
0.64496	-7.22873	11.27051
0.64915	-7.36056	11.27051
0.65341	-7.53634	11.27051
0.65768	-7.71213	11.27051
0.66188	-7.86593	11.27051
0.66607	-7.86593	11.27051
0.67025	-8.01974	11.27051
0.67446	-8.19552	11.27051
0.67866	-8.37131	11.27051
0.68285	-8.54709	11.27051
0.68722	-8.54709	11.27051
0.69144	-8.70089	11.27051
0.69564	-8.83273	11.27051
0.69983	-9.00851	11.27051
0.70402	-9.18429	11.27051
0.70833	-9.33810	11.27051
0.71251	-9.51388	11.27051
0.71701	-9.68966	11.27051
0.72125	-9.68966	11.27051
0.72546	-9.84347	11.27051
0.72966	-10.01925	11.27051
0.73385	-10.15109	11.27051
0.73804	-10.32687	11.27051
0.74224	-10.48068	11.27051
0.74651	-10.48068	11.27051
0.75080	-10.65646	11.27051
0.75501	-10.83224	11.27051
0.75922	-10.98605	11.27051
0.76341	-11.16183	11.27051
0.76760	-11.33761	11.27051
0.77179	-11.33761	11.27051
0.77598	-11.49142	11.27051
0.78029	-11.64523	11.27051
0.78449	-11.79904	11.27051
0.78869	-11.95285	11.27051
0.79288	-12.10666	11.27051
0.79707	-12.28244	11.27051
0.80125	-12.28244	11.27051
0.80544	-12.45822	11.27051
0.80999	-12.61203	11.27051
0.81418	-12.78781	11.27051
0.81837	-12.94162	11.27051
0.82255	-12.94162	11.27051
0.82674	-13.11740	11.27051
0.83093	-13.27121	11.27051
0.83514	-13.44699	11.27051
0.83940	-13.60080	11.27051
0.84368	-13.75461	11.27051
0.84787	-13.75461	11.27051
0.85206	-13.93039	11.27051
0.85625	-14.10617	11.27051
0.86043	-14.23800	11.27051
0.86461	-14.39181	11.27051
0.86880	-14.52365	11.27051
0.87309	-14.69943	11.27051
0.87730	-14.69943	11.27051
0.88148	-14.85324	11.27051
0.88566	-15.00705	11.27051
0.88985	-15.18283	11.27051
0.89403	-15.33664	11.27051
0.89821	-15.33664	11.27051
0.90246	-15.60031	11.27051
0.90672	-15.60031	11.27051
0.91102	-15.77609	11.27051
0.91521	-15.92990	11.27051
0.91939	-16.08371	11.27051
0.92358	-16.21554	11.27051
0.92776	-16.21554	11.27051
0.93194	-16.36935	11.27051
0.93624	-16.54513	11.27051
0.94044	-16.67697	11.27051
0.94463	-16.83078	11.27051
0.94882	-16.96261	11.27051
0.95300	-17.09445	11.27051
0.95718	-17.09445	11.27051
0.96136	-17.24826	11.27051
0.96561	-17.38009	11.27051
0.96987	-17.53390	11.27051
0.97407	-17.68771	11.27051
0.97825	-17.68771	11.27051
0.98243	-17.81955	11.27051
0.98662	-17.97336	11.27051
0.99080	-18.08322	11.27051
0.99499	-18.21506	11.27051
0.99930	-18.36886	11.27051
1.00350	-18.50070	11.27051
1.00768	-18.50070	11.27051
1.01197	-18.63254	11.27051
1.01616	-18.76437	11.27051
1.02034	-18.91818	11.27051
1.02452	-19.05002	11.27051
1.02896	-19.18185	11.27051
1.03317	-19.26974	11.27051
1.03737	-19.26974	11.27051
1.04160	-19.40158	11.27051
1.04579	-19.55539	11.27051
1.04998	-19.66525	11.27051
1.05416	-19.79709	11.27051
1.05841	-19.92892	11.27051
1.06270	-19.92892	11.27051
1.06690	-20.03879	11.27051
1.07110	-20.17062	11.27051
1.07525	-20.30246	11.27051
1.07944	-20.41232	11.27051
1.08363	-20.41232	11.27051
1.08782	-20.52218	11.27051
1.09212	-20.65402	11.27051
1.09632	-20.74191	11.27051
1.10051	-20.87375	11.27051
1.10470	-20.96164	11.27051
1.10889	-20.96164	11.27051
1.11319	-21.07150	11.27051
1.11738	-21.15939	11.27051
1.12164	-21.22531	11.27051
1.12589	-21.31320	11.27051
1.13009	-21.40109	11.27051
1.13428	-21.46701	11.27051
1.13846	-21.46701	11.27051
1.14265	-21.51095	11.27051
1.14684	-21.55490	11.27051
1.15103	-21.62082	11.27051
1.15533	-21.64279	11.27051
1.15953	-21.66476	11.27051
1.16371	-21.66476	11.27051
1.16789	-21.66476	11.27051
1.17208	-21.66476	11.27051
1.17626	-21.66476	11.27051
1.18044	-21.64279	11.27051
1.18485	-21.64279	11.27051
1.18912	-21.64279	11.27051
1.19332	-21.59884	11.27051
1.19751	-21.55490	11.27051
1.20170	-21.51095	11.27051
1.20589	-21.46701	11.27051
1.21008	-21.40109	11.27051
1.21451	-21.33517	11.27051
1.21881	-21.33517	11.27051
1.22301	-21.26925	11.27051
1.22721	-21.20334	11.27051
1.23140	-21.11545	11.27051
1.23559	-21.02756	11.27051
1.23978	-20.93966	11.27051
1.24397	-20.89572	11.27051
1.24832	-20.89572	11.27051
1.25253	-20.78586	11.27051
1.25673	-20.69797	11.27051
1.26092	-20.61007	11.27051
1.26511	-20.50021	11.27051
1.26930	-20.43429	11.27051
1.27349	-20.43429	11.27051
1.27790	-20.32443	11.27051
1.28210	-20.23654	11.27051
1.28629	-20.12668	11.27051
1.29047	-20.06076	11.27051
1.29465	-19.95089	11.27051
1.29884	-19.86300	11.27051
1.30302	-19.86300	11.27051
1.30728	-19.77511	11.27051
1.31155	-19.66525	11.27051
1.31585	-19.57736	11.27051
1.32003	-19.46750	11.27051
1.32422	-19.46750	11.27051
1.32840	-19.35763	11.27051
1.33259	-19.24777	11.27051
1.33677	-19.15988	11.27051
1.34107	-19.05002	11.27051
1.34528	-18.94015	11.27051
1.34946	-18.94015	11.27051
1.35365	-18.85226	11.27051
1.35783	-18.74240	11.27051
1.36202	-18.63254	11.27051
1.36620	-18.52267	11.27051
1.37045	-18.43478	11.27051
1.37472	-18.34689	11.27051
1.37891	-18.34689	11.27051
1.38310	-18.23703	11.27051
1.38725	-18.12716	11.27051
1.39144	-18.03927	11.27051
1.39562	-17.92941	11.27051
1.39981	-17.92941	11.27051
1.40411	-17.81955	11.27051
1.40831	-17.70968	11.27051
1.41250	-17.59982	11.27051
1.41678	-17.51193	11.27051
1.42097	-17.40207	11.27051
1.42515	-17.29220	11.27051
1.42934	-17.29220	11.27051
1.43375	-17.20431	11.27051
1.43797	-17.09445	11.27051
1.44217	-16.98459	11.27051
1.44636	-16.87472	11.27051
1.45055	-16.76486	11.27051
1.45474	-16.76486	11.27051
1.45893	-16.65500	11.27051
1.46320	-16.56711	11.27051
1.46750	-16.45724	11.27051
1.47172	-16.34738	11.27051
1.47592	-16.23752	11.27051
1.48011	-16.12765	11.27051
1.48430	-16.12765	11.27051
1.48849	-16.01779	11.27051
1.49268	-15.90793	11.27051
1.49699	-15.79806	11.27051
1.50120	-15.73214	11.27051
1.50539	-15.60031	11.27051
1.50958	-15.60031	11.27051
1.51377	-15.51242	11.27051
1.51807	-15.40256	11.27051
1.52226	-15.29269	11.27051
1.52670	-15.18283	11.27051
1.53091	-15.07297	11.27051
1.53510	-15.07297	11.27051
1.53926	-14.96310	11.27051
1.54345	-14.85324	11.27051
1.54763	-14.76535	11.27051
1.55182	-14.67746	11.27051
1.55607	-14.54562	11.27051
1.56033	-14.43576	11.27051
1.56453	-14.43576	11.27051
1.56871	-14.34787	11.27051
1.57290	-14.23800	11.27051
1.57708	-14.12814	11.27051
1.58127	-14.01828	11.27051
1.58545	-14.01828	11.27051
1.58975	-13.93039	11.27051
1.59395	-13.79855	11.27051
1.59813	-13.71066	11.27051
1.60231	-13.60080	11.27051
1.60650	-13.49093	11.27051
1.61068	-13.49093	11.27051
1.61487	-13.40304	11.27051
1.61925	-13.29318	11.27051
1.62350	-13.18332	11.27051
1.62768	-13.09543	11.27051
1.63187	-13.00754	11.27051
1.63605	-12.91964	11.27051
1.64023	-12.91964	11.27051
1.64443	-12.80978	11.27051
1.64861	-12.72189	11.27051
1.65291	-12.61203	11.27051
1.65711	-12.50216	11.27051
1.66130	-12.50216	11.27051
1.66548	-12.41427	11.27051
1.66966	-12.32638	11.27051
1.67384	-12.23849	11.27051
1.67803	-12.15060	11.27051
1.68228	-12.04074	11.27051
1.68654	-11.95285	11.27051
1.69077	-11.95285	11.27051
1.69497	-11.86496	11.27051
1.69917	-11.75509	11.27051
1.70335	-11.68918	11.27051
1.70753	-11.57931	11.27051
1.71172	-11.49142	11.27051
1.71606	-11.42550	11.27051
1.72038	-11.42550	11.27051
1.72458	-11.33761	11.27051
1.72877	-11.24972	11.27051
1.73296	-11.16183	11.27051
1.73715	-11.07394	11.27051
1.74134	-10.98605	11.27051
1.74604	-10.98605	11.27051
1.75026	-10.89816	11.27051
1.75448	-10.81027	11.27051
1.75867	-10.74435	11.27051
1.76286	-10.65646	11.27051
1.76704	-10.56857	11.27051
1.77124	-10.50265	11.27051
1.77549	-10.50265	11.27051
1.77981	-10.41476	11.27051
1.78401	-10.32687	11.27051
1.78822	-10.26095	11.27051
1.79241	-10.17306	11.27051
1.79660	-10.10714	11.27051
1.80078	-10.04123	11.27051
1.80496	-10.04123	11.27051
1.80930	-9.97531	11.27051
1.81351	-9.88742	11.27051
1.81771	-9.82150	11.27051
1.82204	-9.73361	11.27051
1.82623	-9.66769	11.27051
1.83041	-9.66769	11.27051
1.83459	-9.60177	11.27051
1.83916	-9.53586	11.27051
1.84338	-9.46994	11.27051
1.84758	-9.40402	11.27051
1.85176	-9.40402	11.27051
1.85595	-9.33810	11.27051
1.86014	-9.27218	11.27051
1.86433	-9.20627	11.27051
1.86858	-9.14035	11.27051
1.87285	-9.07443	11.27051
1.87704	-9.07443	11.27051
1.88123	-9.00851	11.27051
1.88541	-8.94259	11.27051
1.88962	-8.89865	11.27051
1.89381	-8.85470	11.27051
1.89800	-8.78879	11.27051
1.90230	-8.72287	11.27051
1.90652	-8.72287	11.27051
1.91071	-8.67892	11.27051
1.91490	-8.61300	11.27051
1.91908	-8.56906	11.27051
1.92336	-8.52511	11.27051
1.92754	-8.48117	11.27051
1.93198	-8.43722	11.27051
1.93619	-8.43722	11.27051
1.94038	-8.37131	11.27051
1.94456	-8.32736	11.27051
1.94875	-8.28341	11.27051
1.95293	-8.23947	11.27051
1.95713	-8.23947	11.27051
1.96138	-8.19552	11.27051
1.96567	-8.15158	11.27051
1.96986	-8.10763	11.27051
1.97405	-8.08566	11.27051
1.97824	-8.04172	11.27051
1.98242	-7.99777	11.27051
1.98663	-7.99777	11.27051
1.99082	-7.97580	11.27051
1.99515	-7.95382	11.27051
1.99935	-7.90988	11.27051
2.00354	-7.86593	11.27051
2.00773	-7.84396	11.27051
2.01192	-7.82199	11.27051
2.01610	-7.82199	11.27051
2.02029	-7.77804	11.27051
2.02465	-7.75607	11.27051
2.02892	-7.73410	11.27051
2.03312	-7.71213	11.27051
2.03731	-7.69015	11.27051
2.04152	-7.69015	11.27051
2.04572	-7.66818	11.27051
2.04991	-7.64621	11.27051
2.05410	-7.62423	11.27051
2.05840	-7.60226	11.27051
2.06261	-7.58029	11.27051
2.06679	-7.58029	11.27051
2.07099	-7.55832	11.27051
2.07519	-7.55832	11.27051
2.07938	-7.53634	11.27051
2.08356	-7.51437	11.27051
2.08802	-7.51437	11.27051
2.09223	-7.51437	11.27051
2.09644	-7.49240	11.27051
2.10064	-7.49240	11.27051
2.10483	-7.47043	11.27051
2.10903	-7.47043	11.27051
2.11322	-7.47043	11.27051
2.11748	-7.47043	11.27051
2.12176	-7.47043	11.27051
2.12606	-7.47043	11.27051
2.13025	-7.47043	11.27051
2.13443	-7.44845	11.27051
2.13862	-7.47043	11.27051
2.14280	-7.44845	11.27051
2.14699	-7.44845	11.27051
2.15130	-7.44845	11.27051
2.15550	-7.44845	11.27051
2.15969	-7.47043	11.27051
2.16387	-7.47043	11.27051
2.16806	-7.47043	11.27051
2.17224	-7.47043	11.27051
2.17642	-7.47043	11.27051
2.18067	-7.47043	11.27051
2.18493	-7.49240	11.27051
2.18916	-7.49240	11.27051
2.19336	-7.51437	11.27051
2.19755	-7.51437	11.27051
2.20173	-7.53634	11.27051
2.20592	-7.53634	11.27051
2.21010	-7.55832	11.27051
2.21441	-7.55832	11.27051
2.21860	-7.58029	11.27051
2.22279	-7.58029	11.27051
2.22708	-7.60226	11.27051
2.23125	-7.62423	11.27051
2.23543	-7.62423	11.27051
2.23962	-7.64621	11.27051
2.24405	-7.69015	11.27051
2.24827	-7.69015	11.27051
2.25246	-7.69015	11.27051
2.25665	-7.71213	11.27051
2.26084	-7.75607	11.27051
2.26502	-7.77804	11.27051
2.26921	-7.80002	11.27051
2.27346	-7.82199	11.27051
2.27774	-7.82199	11.27051
2.28194	-7.84396	11.27051
2.28612	-7.86593	11.27051
2.29033	-7.90988	11.27051
2.29452	-7.93185	11.27051
2.29871	-7.95382	11.27051
2.30289	-7.95382	11.27051
2.30721	-7.99777	11.27051
2.31142	-8.01974	11.27051
2.31561	-8.06369	11.27051
2.31979	-8.08566	11.27051
2.32398	-8.12961	11.27051
2.32827	-8.15158	11.27051
2.33245	-8.15158	11.27051
2.33670	-8.19552	11.27051
2.34098	-8.23947	11.27051
2.34517	-8.28341	11.27051
2.34936	-8.32736	11.27051
2.35356	-8.32736	11.27051
2.35774	-8.34933	11.27051
2.36193	-8.39328	11.27051
2.36611	-8.43722	11.27051
2.37041	-8.48117	11.27051
2.37461	-8.52511	11.27051
2.37880	-8.52511	11.27051
2.38299	-8.56906	11.27051
2.38720	-8.61300	11.27051
2.39139	-8.65695	11.27051
2.39557	-8.72287	11.27051
2.40000	-8.74484	11.27051
2.40421	-8.78879	11.27051
2.40839	-8.78879	11.27051
2.41259	-8.85470	11.27051
2.41678	-8.89865	11.27051
2.42097	-8.94259	11.27051
2.42516	-8.98654	11.27051
2.42954	-9.05246	11.27051
2.43383	-9.05246	11.27051
2.43802	-9.11838	11.27051
2.44223	-9.14035	11.27051
2.44642	-9.20627	11.27051
2.45060	-9.25021	11.27051
2.45479	-9.31613	11.27051
2.45897	-9.31613	11.27051
2.46329	-9.38205	11.27051
2.46748	-9.42599	11.27051
2.47167	-9.49191	11.27051
2.47586	-9.55783	11.27051
2.48004	-9.62375	11.27051
2.48423	-9.66769	11.27051
2.48843	-9.66769	11.27051
2.49291	-9.71164	11.27051
2.49712	-9.77756	11.27051
2.50130	-9.84347	11.27051
2.50549	-9.90939	11.27051
2.50968	-9.97531	11.27051
2.51386	-9.97531	11.27051
2.51805	-10.04123	11.27051
2.52229	-10.10714	11.27051
2.52659	-10.15109	11.27051
2.53090	-10.21701	11.27051
2.53509	-10.28293	11.27051
2.53926	-10.34884	11.27051
2.54346	-10.34884	11.27051
2.54766	-10.43673	11.27051
2.55184	-10.50265	11.27051
2.55615	-10.56857	11.27051
2.56035	-10.63449	11.27051
2.56454	-10.72238	11.27051
2.56872	-10.76632	11.27051
2.57291	-10.76632	11.27051
2.57710	-10.83224	11.27051
2.58128	-10.89816	11.27051
2.58554	-10.96408	11.27051
2.58983	-11.05197	11.27051
2.59404	-11.05197	11.27051
2.59823	-11.11789	11.27051
2.60242	-11.20578	11.27051
2.60661	-11.27170	11.27051
2.61080	-11.33761	11.27051
2.61498	-11.42550	11.27051
2.61931	-11.42550	11.27051
2.62351	-11.49142	11.27051
2.62770	-11.55734	11.27051
2.63198	-11.64523	11.27051
2.63617	-11.71115	11.27051
2.64035	-11.77707	11.27051
2.64453	-11.77707	11.27051
2.64893	-11.86496	11.27051
2.65314	-11.93088	11.27051
2.65733	-11.99679	11.27051
2.66151	-12.08468	11.27051
2.66569	-12.15060	11.27051
2.66987	-12.15060	11.27051
2.67406	-12.23849	11.27051
2.67830	-12.30441	11.27051
2.68259	-12.39230	11.27051
2.68678	-12.45822	11.27051
2.69098	-12.52414	11.27051
2.69519	-12.61203	11.27051
2.69937	-12.61203	11.27051
2.70356	-12.67795	11.27051
2.70774	-12.74386	11.27051
2.71204	-12.83175	11.27051
2.71625	-12.89767	11.27051
2.72044	-12.98556	11.27051
2.72464	-12.98556	11.27051
2.72882	-13.05148	11.27051
2.73311	-13.13937	11.27051
2.73731	-13.20529	11.27051
2.74157	-13.27121	11.27051
2.74584	-13.33713	11.27051
2.75004	-13.42502	11.27051
2.75423	-13.42502	11.27051
2.75842	-13.49093	11.27051
2.76260	-13.57882	11.27051
2.76678	-13.64474	11.27051
2.77097	-13.71066	11.27051
2.77528	-13.71066	11.27051
2.77948	-13.79855	11.27051
2.78367	-13.86447	11.27051
2.78787	-13.93039	11.27051
2.79207	-14.01828	11.27051
2.79626	-14.08420	11.27051
2.80045	-14.17209	11.27051
2.80492	-14.17209	11.27051
2.80912	-14.23800	11.27051
2.81331	-14.30392	11.27051
2.81750	-14.39181	11.27051
2.82168	-14.45773	11.27051
2.82587	-14.52365	11.27051
2.83005	-14.58957	11.27051
2.83444	-14.58957	11.27051
2.83872	-14.65548	11.27051
2.84292	-14.74338	11.27051
2.84710	-14.80929	11.27051
2.85125	-14.87521	11.27051
2.85544	-14.94113	11.27051
2.85962	-14.94113	11.27051
2.86381	-15.02902	11.27051
2.86810	-15.09494	11.27051
2.87231	-15.16086	11.27051
2.87649	-15.22677	11.27051
2.88068	-15.22677	11.27051
2.88486	-15.29269	11.27051
2.88906	-15.38058	11.27051
2.89326	-15.44650	11.27051
2.89752	-15.51242	11.27051
2.90180	-15.57834	11.27051
2.90600	-15.57834	11.27051
2.91019	-15.64425	11.27051
2.91437	-15.71017	11.27051
2.91856	-15.77609	11.27051
2.92274	-15.84201	11.27051
2.92693	-15.88595	11.27051
2.93124	-15.95187	11.27051
2.93555	-15.95187	11.27051
2.93974	-16.03976	11.27051
2.94392	-16.10568	11.27051
2.94810	-16.17160	11.27051
2.95229	-16.21554	11.27051
2.95647	-16.28146	11.27051
2.96092	-16.34738	11.27051
2.96513	-16.34738	11.27051
2.96931	-16.41330	11.27051
2.97350	-16.45724	11.27051
2.97769	-16.52316	11.27051
2.98187	-16.58908	11.27051
2.98605	-16.58908	11.27051
2.99035	-16.65500	11.27051
2.99465	-16.72091	11.27051
2.99885	-16.74289	11.27051
3.00304	-16.80881	11.27051
3.00723	-16.87472	11.27051
3.01142	-16.91867	11.27051
3.01560	-16.91867	11.27051
3.01978	-16.98459	11.27051
3.02409	-17.05050	11.27051
3.02829	-17.11642	11.27051
3.03247	-17.16037	11.27051
3.03676	-17.20431	11.27051
3.04095	-17.27023	11.27051
3.04515	-17.27023	11.27051
3.04935	-17.31418	11.27051
3.05360	-17.38009	11.27051
3.05789	-17.42404	11.27051
3.06209	-17.48996	11.27051
3.06628	-17.48996	11.27051
3.07046	-17.53390	11.27051
3.07465	-17.57785	11.27051
3.07883	-17.64377	11.27051
3.08302	-17.68771	11.27051
3.08733	-17.73166	11.27051
3.09154	-17.77560	11.27051
3.09575	-17.77560	11.27051
3.09994	-17.81955	11.27051
3.10413	-17.86349	11.27051
3.10832	-17.92941	11.27051
3.11250	-17.97336	11.27051
3.11695	-18.01730	11.27051
3.12116	-18.01730	11.27051
3.12535	-18.06125	11.27051
3.12953	-18.10519	11.27051
3.13372	-18.14914	11.27051
3.13800	-18.19308	11.27051
3.14218	-18.23703	11.27051
3.14644	-18.23703	11.27051
3.15071	-18.28097	11.27051
3.15491	-18.32492	11.27051
3.15911	-18.36886	11.27051
3.16330	-18.41281	11.27051
3.16748	-18.43478	11.27051
3.17166	-18.43478	11.27051
3.17585	-18.47873	11.27051
3.18014	-18.52267	11.27051
