Time (s)   roll (deg)   Delta
0.00039	-8.32736	11.27051
0.00460	-8.32736	11.27051
0.00880	-8.34933	11.27051
0.01298	-8.34933	11.27051
0.01716	-8.34933	11.27051
0.02146	-8.34933	11.27051
0.02574	-8.34933	11.27051
0.02993	-8.34933	11.27051
0.03411	-8.34933	11.27051
0.03829	-8.34933	11.27051
0.04248	-8.34933	11.27051
0.04666	-8.34933	11.27051
0.05084	-8.34933	11.27051
0.05515	-8.37131	11.27051
0.05935	-8.37131	11.27051
0.06353	-8.37131	11.27051
0.06772	-8.37131	11.27051
0.07190	-8.37131	11.27051
0.07608	-8.37131	11.27051
0.08026	-8.39328	11.27051
0.08467	-8.39328	11.27051
0.08888	-8.39328	11.27051
0.09305	-8.41525	11.27051
0.09723	-8.41525	11.27051
0.10150	-8.41525	11.27051
0.10568	-8.43722	11.27051
0.10985	-8.43722	11.27051
0.11411	-8.45920	11.27051
0.11835	-8.45920	11.27051
0.12254	-8.45920	11.27051
0.12671	-8.48117	11.27051
0.13089	-8.48117	11.27051
0.13507	-8.50314	11.27051
0.13924	-8.50314	11.27051
0.14349	-8.52511	11.27051
0.14775	-8.52511	11.27051
0.15194	-8.52511	11.27051
0.15612	-8.54709	11.27051
0.16029	-8.56906	11.27051
0.16447	-8.59103	11.27051
0.16864	-8.61300	11.27051
0.17282	-8.61300	11.27051
0.17710	-8.61300	11.27051
0.18129	-8.63498	11.27051
0.18547	-8.65695	11.27051
0.18964	-8.67892	11.27051
0.19383	-8.70089	11.27051
0.19801	-8.72287	11.27051
0.20230	-8.72287	11.27051
0.20674	-8.74484	11.27051
0.21100	-8.76681	11.27051
0.21522	-8.76681	11.27051
0.21942	-8.81076	11.27051
0.22361	-8.83273	11.27051
0.22780	-8.85470	11.27051
0.23199	-8.85470	11.27051
0.23624	-8.87668	11.27051
0.24050	-8.92062	11.27051
0.24469	-8.94259	11.27051
0.24888	-8.96457	11.27051
0.25306	-8.96457	11.27051
0.25724	-9.00851	11.27051
0.26143	-9.03048	11.27051
0.26575	-9.05246	11.27051
0.27003	-9.07443	11.27051
0.27424	-9.11838	11.27051
0.27842	-9.11838	11.27051
0.28261	-9.16232	11.27051
0.28679	-9.18429	11.27051
0.29099	-9.22824	11.27051
0.29518	-9.25021	11.27051
0.29947	-9.29416	11.27051
0.30377	-9.31613	11.27051
0.30795	-9.31613	11.27051
0.31214	-9.36007	11.27051
0.31632	-9.40402	11.27051
0.32050	-9.42599	11.27051
0.32469	-9.46994	11.27051
0.32911	-9.51388	11.27051
0.33331	-9.51388	11.27051
0.33750	-9.55783	11.27051
0.34168	-9.57980	11.27051
0.34587	-9.62375	11.27051
0.35005	-9.66769	11.27051
0.35423	-9.71164	11.27051
0.35851	-9.71164	11.27051
0.36281	-9.75558	11.27051
0.36703	-9.79953	11.27051
0.37121	-9.82150	11.27051
0.37542	-9.88742	11.27051
0.37962	-9.90939	11.27051
0.38381	-9.95334	11.27051
0.38825	-9.95334	11.27051
0.39255	-9.99728	11.27051
0.39676	-10.04123	11.27051
0.40095	-10.10714	11.27051
0.40525	-10.15109	11.27051
0.40945	-10.19504	11.27051
0.41364	-10.19504	11.27051
0.41783	-10.23898	11.27051
0.42214	-10.28293	11.27051
0.42634	-10.32687	11.27051
0.43054	-10.37082	11.27051
0.43473	-10.41476	11.27051
0.43892	-10.45871	11.27051
0.44311	-10.45871	11.27051
0.44730	-10.52463	11.27051
0.45168	-10.56857	11.27051
0.45589	-10.61252	11.27051
0.46008	-10.67843	11.27051
0.46427	-10.72238	11.27051
0.46847	-10.76632	11.27051
0.47266	-10.76632	11.27051
0.47685	-10.81027	11.27051
0.48116	-10.87619	11.27051
0.48542	-10.92013	11.27051
0.48961	-10.98605	11.27051
0.49381	-10.98605	11.27051
0.49799	-11.03000	11.27051
0.50218	-11.07394	11.27051
0.50646	-11.13986	11.27051
0.51072	-11.18381	11.27051
0.51499	-11.24972	11.27051
0.51920	-11.24972	11.27051
0.52339	-11.31564	11.27051
0.52757	-11.35959	11.27051
0.53176	-11.42550	11.27051
0.53594	-11.46945	11.27051
0.54012	-11.53537	11.27051
0.54441	-11.53537	11.27051
0.54861	-11.57931	11.27051
0.55280	-11.64523	11.27051
0.55698	-11.71115	11.27051
0.56117	-11.75509	11.27051
0.56535	-11.82101	11.27051
0.56954	-11.82101	11.27051
0.57393	-11.86496	11.27051
0.57813	-11.93088	11.27051
0.58232	-11.99679	11.27051
0.58650	-12.04074	11.27051
0.59069	-12.10666	11.27051
0.59488	-12.15060	11.27051
0.59910	-12.15060	11.27051
0.60338	-12.21652	11.27051
0.60773	-12.28244	11.27051
0.61192	-12.34836	11.27051
0.61611	-12.39230	11.27051
0.62029	-12.45822	11.27051
0.62448	-12.45822	11.27051
0.62866	-12.52414	11.27051
0.63291	-12.56808	11.27051
0.63718	-12.63400	11.27051
0.64138	-12.69992	11.27051
0.64556	-12.74386	11.27051
0.64975	-12.80978	11.27051
0.65393	-12.80978	11.27051
0.65811	-12.87570	11.27051
0.66230	-12.94162	11.27051
0.66659	-13.00754	11.27051
0.67080	-13.05148	11.27051
0.67498	-13.05148	11.27051
0.67918	-13.11740	11.27051
0.68336	-13.16134	11.27051
0.68755	-13.22726	11.27051
0.69173	-13.29318	11.27051
0.69612	-13.35910	11.27051
0.70032	-13.42502	11.27051
0.70451	-13.42502	11.27051
0.70880	-13.49093	11.27051
0.71298	-13.55685	11.27051
0.71716	-13.60080	11.27051
0.72134	-13.68869	11.27051
0.72561	-13.73263	11.27051
0.72986	-13.79855	11.27051
0.73405	-13.79855	11.27051
0.73823	-13.86447	11.27051
0.74242	-13.90841	11.27051
0.74660	-13.99631	11.27051
0.75079	-14.04025	11.27051
0.75504	-14.10617	11.27051
0.75928	-14.10617	11.27051
0.76347	-14.17209	11.27051
0.76765	-14.23800	11.27051
0.77184	-14.30392	11.27051
0.77602	-14.34787	11.27051
0.78020	-14.34787	11.27051
0.78439	-14.43576	11.27051
0.78868	-14.47970	11.27051
0.79287	-14.54562	11.27051
0.79707	-14.61154	11.27051
0.80125	-14.67746	11.27051
0.80543	-14.67746	11.27051
0.80972	-14.74338	11.27051
0.81390	-14.78732	11.27051
0.81828	-14.85324	11.27051
0.82250	-14.91916	11.27051
0.82668	-14.98507	11.27051
0.83086	-15.02902	11.27051
0.83505	-15.02902	11.27051
0.83918	-15.09494	11.27051
0.84337	-15.16086	11.27051
0.84762	-15.22677	11.27051
0.85187	-15.27072	11.27051
0.85606	-15.33664	11.27051
0.86025	-15.33664	11.27051
0.86443	-15.40256	11.27051
0.86861	-15.46847	11.27051
0.87280	-15.51242	11.27051
0.87704	-15.57834	11.27051
0.88131	-15.64425	11.27051
0.88550	-15.64425	11.27051
0.88969	-15.71017	11.27051
0.89387	-15.75412	11.27051
0.89806	-15.79806	11.27051
0.90224	-15.86398	11.27051
0.90642	-15.90793	11.27051
0.91082	-15.97384	11.27051
0.91501	-15.97384	11.27051
0.91919	-16.03976	11.27051
0.92337	-16.10568	11.27051
0.92756	-16.14963	11.27051
0.93174	-16.21554	11.27051
0.93592	-16.25949	11.27051
0.94031	-16.30343	11.27051
0.94452	-16.30343	11.27051
0.94870	-16.36935	11.27051
0.95289	-16.43527	11.27051
0.95707	-16.47922	11.27051
0.96125	-16.54513	11.27051
0.96544	-16.54513	11.27051
0.96971	-16.58908	11.27051
0.97396	-16.65500	11.27051
0.97815	-16.69894	11.27051
0.98234	-16.76486	11.27051
0.98652	-16.80881	11.27051
0.99070	-16.85275	11.27051
0.99489	-16.85275	11.27051
0.99915	-16.91867	11.27051
1.00342	-16.96261	11.27051
1.00762	-17.02853	11.27051
1.01190	-17.07248	11.27051
1.01608	-17.07248	11.27051
1.02026	-17.13839	11.27051
1.02445	-17.18234	11.27051
1.02863	-17.22629	11.27051
1.03291	-17.29220	11.27051
1.03711	-17.33615	11.27051
1.04130	-17.33615	11.27051
1.04548	-17.40207	11.27051
1.04966	-17.44601	11.27051
1.05384	-17.48996	11.27051
1.05803	-17.55588	11.27051
1.06238	-17.59982	11.27051
1.06658	-17.64377	11.27051
1.07077	-17.64377	11.27051
1.07495	-17.68771	11.27051
1.07916	-17.73166	11.27051
1.08335	-17.77560	11.27051
1.08753	-17.81955	11.27051
1.09178	-17.81955	11.27051
1.09603	-17.88547	11.27051
1.10022	-17.90744	11.27051
1.10440	-17.97336	11.27051
1.10858	-17.99533	11.27051
1.11287	-18.06125	11.27051
1.11705	-18.08322	11.27051
1.12131	-18.08322	11.27051
1.12560	-18.14914	11.27051
1.12981	-18.19308	11.27051
1.13400	-18.21506	11.27051
1.13818	-18.25900	11.27051
1.14237	-18.30295	11.27051
1.14655	-18.30295	11.27051
1.15073	-18.34689	11.27051
1.15502	-18.39084	11.27051
1.15920	-18.41281	11.27051
1.16339	-18.47873	11.27051
1.16757	-18.50070	11.27051
1.17175	-18.50070	11.27051
1.17594	-18.54464	11.27051
1.18012	-18.61056	11.27051
1.18449	-18.63254	11.27051
1.18870	-18.67648	11.27051
1.19288	-18.69845	11.27051
1.19707	-18.72043	11.27051
1.20125	-18.72043	11.27051
1.20544	-18.76437	11.27051
1.20962	-18.78634	11.27051
1.21402	-18.85226	11.27051
1.21827	-18.87423	11.27051
1.22250	-18.91818	11.27051
1.22670	-18.91818	11.27051
1.23088	-18.94015	11.27051
1.23507	-18.96213	11.27051
1.23926	-19.00607	11.27051
1.24351	-19.02804	11.27051
1.24786	-19.05002	11.27051
1.25207	-19.09396	11.27051
1.25628	-19.09396	11.27051
1.26047	-19.11593	11.27051
1.26466	-19.13791	11.27051
1.26884	-19.18185	11.27051
1.27302	-19.20382	11.27051
1.27737	-19.22580	11.27051
1.28159	-19.22580	11.27051
1.28579	-19.24777	11.27051
1.29000	-19.26974	11.27051
1.29419	-19.29172	11.27051
1.29838	-19.31369	11.27051
1.30257	-19.31369	11.27051
1.30724	-19.33566	11.27051
1.31144	-19.37961	11.27051
1.31573	-19.37961	11.27051
1.31992	-19.42355	11.27051
1.32413	-19.42355	11.27051
1.32832	-19.44552	11.27051
1.33251	-19.44552	11.27051
1.33679	-19.46750	11.27051
1.34106	-19.46750	11.27051
1.34526	-19.51144	11.27051
1.34944	-19.51144	11.27051
1.35363	-19.53341	11.27051
1.35781	-19.53341	11.27051
1.36200	-19.53341	11.27051
1.36625	-19.55539	11.27051
1.37052	-19.57736	11.27051
1.37473	-19.57736	11.27051
1.37891	-19.59933	11.27051
1.38311	-19.59933	11.27051
1.38729	-19.59933	11.27051
1.39149	-19.62131	11.27051
1.39568	-19.64328	11.27051
1.39998	-19.64328	11.27051
1.40418	-19.66525	11.27051
1.40837	-19.64328	11.27051
1.41255	-19.66525	11.27051
1.41684	-19.66525	11.27051
1.42102	-19.66525	11.27051
1.42522	-19.66525	11.27051
1.42966	-19.68722	11.27051
1.43387	-19.66525	11.27051
1.43806	-19.68722	11.27051
1.44224	-19.68722	11.27051
1.44643	-19.68722	11.27051
1.45061	-19.68722	11.27051
1.45480	-19.70920	11.27051
1.45907	-19.68722	11.27051
1.46334	-19.70920	11.27051
1.46753	-19.70920	11.27051
1.47172	-19.68722	11.27051
1.47590	-19.70920	11.27051
1.48009	-19.70920	11.27051
1.48427	-19.68722	11.27051
1.48852	-19.70920	11.27051
1.49280	-19.68722	11.27051
1.49699	-19.68722	11.27051
1.50119	-19.68722	11.27051
1.50537	-19.68722	11.27051
1.50956	-19.68722	11.27051
1.51374	-19.66525	11.27051
1.51803	-19.66525	11.27051
1.52233	-19.66525	11.27051
1.52655	-19.66525	11.27051
1.53073	-19.64328	11.27051
1.53492	-19.64328	11.27051
1.53911	-19.64328	11.27051
1.54329	-19.64328	11.27051
1.54748	-19.62131	11.27051
1.55189	-19.62131	11.27051
1.55609	-19.59933	11.27051
1.56028	-19.59933	11.27051
1.56447	-19.57736	11.27051
1.56865	-19.57736	11.27051
1.57283	-19.57736	11.27051
1.57702	-19.55539	11.27051
1.58127	-19.53341	11.27051
1.58554	-19.53341	11.27051
1.58974	-19.48947	11.27051
1.59392	-19.48947	11.27051
1.59811	-19.48947	11.27051
1.60230	-19.46750	11.27051
1.60649	-19.46750	11.27051
1.61074	-19.44552	11.27051
1.61502	-19.40158	11.27051
1.61931	-19.40158	11.27051
1.62352	-19.37961	11.27051
1.62771	-19.37961	11.27051
1.63190	-19.37961	11.27051
1.63609	-19.35763	11.27051
1.64027	-19.33566	11.27051
1.64456	-19.31369	11.27051
1.64876	-19.31369	11.27051
1.65295	-19.29172	11.27051
1.65713	-19.26974	11.27051
1.66132	-19.24777	11.27051
1.66550	-19.22580	11.27051
1.66968	-19.20382	11.27051
1.67408	-19.15988	11.27051
1.67828	-19.15988	11.27051
1.68247	-19.13791	11.27051
1.68666	-19.11593	11.27051
1.69084	-19.09396	11.27051
1.69503	-19.07199	11.27051
1.69919	-19.02804	11.27051
1.70346	-19.02804	11.27051
1.70772	-19.02804	11.27051
1.71191	-19.00607	11.27051
1.71609	-18.96213	11.27051
1.72038	-18.94015	11.27051
1.72458	-18.91818	11.27051
1.72877	-18.91818	11.27051
1.73302	-18.87423	11.27051
1.73729	-18.85226	11.27051
1.74149	-18.83029	11.27051
1.74568	-18.80832	11.27051
1.74987	-18.76437	11.27051
1.75405	-18.74240	11.27051
1.75823	-18.74240	11.27051
1.76242	-18.69845	11.27051
1.76671	-18.67648	11.27051
1.77090	-18.63254	11.27051
1.77510	-18.61056	11.27051
1.77928	-18.58859	11.27051
1.78347	-18.58859	11.27051
1.78765	-18.56662	11.27051
1.79183	-18.52267	11.27051
1.79623	-18.47873	11.27051
1.80043	-18.45675	11.27051
1.80463	-18.41281	11.27051
1.80881	-18.41281	11.27051
1.81300	-18.39084	11.27051
1.81718	-18.34689	11.27051
1.82147	-18.30295	11.27051
1.82576	-18.28097	11.27051
1.83002	-18.28097	11.27051
1.83421	-18.23703	11.27051
1.83840	-18.21506	11.27051
1.84260	-18.19308	11.27051
1.84678	-18.14914	11.27051
1.85097	-18.10519	11.27051
1.85523	-18.08322	11.27051
1.85950	-18.08322	11.27051
1.86369	-18.03927	11.27051
1.86788	-17.99533	11.27051
1.87207	-17.97336	11.27051
1.87625	-17.95138	11.27051
1.88043	-17.90744	11.27051
1.88461	-17.88547	11.27051
1.88890	-17.88547	11.27051
1.89310	-17.81955	11.27051
1.89729	-17.79757	11.27051
1.90147	-17.75363	11.27051
1.90565	-17.73166	11.27051
1.90984	-17.73166	11.27051
1.91402	-17.68771	11.27051
1.91838	-17.64377	11.27051
1.92275	-17.62179	11.27051
1.92694	-17.57785	11.27051
1.93114	-17.55588	11.27051
1.93532	-17.51193	11.27051
1.93950	-17.51193	11.27051
1.94369	-17.48996	11.27051
1.94795	-17.44601	11.27051
1.95220	-17.40207	11.27051
1.95639	-17.35812	11.27051
1.96058	-17.33615	11.27051
1.96476	-17.31418	11.27051
1.96895	-17.31418	11.27051
1.97313	-17.24826	11.27051
1.97741	-17.22629	11.27051
1.98169	-17.18234	11.27051
1.98590	-17.13839	11.27051
1.99009	-17.11642	11.27051
1.99427	-17.11642	11.27051
1.99846	-17.07248	11.27051
2.00265	-17.05050	11.27051
2.00685	-17.00656	11.27051
2.01115	-16.96261	11.27051
2.01536	-16.94064	11.27051
2.01954	-16.94064	11.27051
2.02385	-16.89670	11.27051
2.02803	-16.85275	11.27051
2.03222	-16.80881	11.27051
2.03641	-16.78683	11.27051
2.04079	-16.74289	11.27051
2.04499	-16.74289	11.27051
2.04918	-16.69894	11.27051
2.05336	-16.67697	11.27051
2.05754	-16.63302	11.27051
2.06173	-16.58908	11.27051
2.06592	-16.56711	11.27051
2.07020	-16.56711	11.27051
2.07444	-16.52316	11.27051
2.07863	-16.50119	11.27051
2.08282	-16.43527	11.27051
2.08701	-16.41330	11.27051
2.09119	-16.36935	11.27051
2.09537	-16.36935	11.27051
2.09962	-16.34738	11.27051
2.10389	-16.32541	11.27051
2.10809	-16.28146	11.27051
2.11227	-16.23752	11.27051
2.11646	-16.19357	11.27051
2.12064	-16.19357	11.27051
2.12495	-16.17160	11.27051
2.12913	-16.12765	11.27051
2.13343	-16.10568	11.27051
2.13764	-16.06173	11.27051
2.14182	-16.03976	11.27051
2.14601	-15.99582	11.27051
2.15019	-15.99582	11.27051
2.15438	-15.95187	11.27051
2.15856	-15.92990	11.27051
2.16294	-15.90793	11.27051
2.16715	-15.86398	11.27051
2.17135	-15.82004	11.27051
2.17554	-15.79806	11.27051
2.17972	-15.79806	11.27051
2.18391	-15.77609	11.27051
2.18809	-15.73214	11.27051
2.19236	-15.71017	11.27051
2.19662	-15.66623	11.27051
2.20081	-15.66623	11.27051
2.20499	-15.64425	11.27051
2.20918	-15.62228	11.27051
2.21336	-15.57834	11.27051
2.21755	-15.55636	11.27051
2.22180	-15.53439	11.27051
2.22622	-15.49045	11.27051
2.23042	-15.49045	11.27051
2.23461	-15.46847	11.27051
2.23879	-15.42453	11.27051
2.24298	-15.40256	11.27051
2.24717	-15.38058	11.27051
2.25136	-15.33664	11.27051
2.25565	-15.33664	11.27051
2.25986	-15.31466	11.27051
2.26405	-15.29269	11.27051
2.26824	-15.27072	11.27051
2.27242	-15.22677	11.27051
2.27660	-15.20480	11.27051
2.28079	-15.20480	11.27051
2.28519	-15.18283	11.27051
2.28940	-15.13888	11.27051
2.29359	-15.11691	11.27051
2.29778	-15.09494	11.27051
2.30196	-15.07297	11.27051
2.30615	-15.07297	11.27051
2.31034	-15.05099	11.27051
2.31461	-15.02902	11.27051
2.31887	-14.98507	11.27051
2.32313	-14.98507	11.27051
2.32743	-14.94113	11.27051
2.33161	-14.94113	11.27051
2.33580	-14.91916	11.27051
2.33998	-14.89718	11.27051
2.34425	-14.87521	11.27051
2.34853	-14.85324	11.27051
2.35273	-14.83127	11.27051
2.35692	-14.80929	11.27051
2.36110	-14.80929	11.27051
2.36529	-14.78732	11.27051
2.36947	-14.76535	11.27051
2.37366	-14.74338	11.27051
2.37795	-14.72140	11.27051
2.38215	-14.72140	11.27051
2.38633	-14.69943	11.27051
2.39055	-14.69943	11.27051
2.39474	-14.65548	11.27051
2.39893	-14.65548	11.27051
2.40313	-14.63351	11.27051
2.40753	-14.61154	11.27051
2.41173	-14.61154	11.27051
2.41592	-14.58957	11.27051
2.42010	-14.56759	11.27051
2.42431	-14.56759	11.27051
2.42860	-14.52365	11.27051
2.43279	-14.52365	11.27051
2.43707	-14.50168	11.27051
2.44132	-14.50168	11.27051
2.44552	-14.47970	11.27051
2.44970	-14.47970	11.27051
2.45389	-14.45773	11.27051
2.45807	-14.43576	11.27051
2.46226	-14.41379	11.27051
2.46651	-14.41379	11.27051
2.47078	-14.41379	11.27051
2.47498	-14.41379	11.27051
2.47918	-14.39181	11.27051
2.48336	-14.36984	11.27051
2.48755	-14.34787	11.27051
2.49173	-14.34787	11.27051
2.49593	-14.34787	11.27051
2.50023	-14.34787	11.27051
2.50444	-14.32589	11.27051
2.50863	-14.30392	11.27051
2.51283	-14.30392	11.27051
2.51701	-14.30392	11.27051
2.52120	-14.30392	11.27051
2.52540	-14.28195	11.27051
2.52992	-14.25998	11.27051
2.53412	-14.25998	11.27051
2.53832	-14.25998	11.27051
2.54250	-14.23800	11.27051
2.54669	-14.23800	11.27051
2.55088	-14.21603	11.27051
2.55507	-14.23800	11.27051
2.55934	-14.21603	11.27051
2.56360	-14.19406	11.27051
2.56779	-14.19406	11.27051
2.57197	-14.19406	11.27051
2.57616	-14.17209	11.27051
2.58034	-14.19406	11.27051
2.58453	-14.17209	11.27051
2.58877	-14.17209	11.27051
2.59304	-14.17209	11.27051
2.59723	-14.17209	11.27051
2.60142	-14.17209	11.27051
2.60561	-14.17209	11.27051
2.60979	-14.15011	11.27051
2.61399	-14.15011	11.27051
2.61817	-14.12814	11.27051
2.62246	-14.12814	11.27051
2.62668	-14.15011	11.27051
2.63097	-14.12814	11.27051
2.63517	-14.12814	11.27051
2.63935	-14.12814	11.27051
2.64355	-14.12814	11.27051
2.64774	-14.12814	11.27051
2.65215	-14.12814	11.27051
2.65636	-14.12814	11.27051
2.66055	-14.12814	11.27051
2.66473	-14.12814	11.27051
2.66892	-14.10617	11.27051
2.67310	-14.12814	11.27051
2.67728	-14.12814	11.27051
2.68155	-14.10617	11.27051
2.68581	-14.12814	11.27051
2.69000	-14.12814	11.27051
2.69419	-14.10617	11.27051
2.69838	-14.12814	11.27051
2.70256	-14.12814	11.27051
2.70674	-14.10617	11.27051
2.71100	-14.12814	11.27051
2.71536	-14.12814	11.27051
2.71958	-14.12814	11.27051
2.72380	-14.12814	11.27051
2.72801	-14.12814	11.27051
2.73231	-14.12814	11.27051
2.73650	-14.12814	11.27051
2.74069	-14.12814	11.27051
2.74504	-14.15011	11.27051
2.74926	-14.15011	11.27051
2.75345	-14.15011	11.27051
2.75766	-14.15011	11.27051
2.76186	-14.15011	11.27051
2.76605	-14.15011	11.27051
2.77024	-14.17209	11.27051
2.77498	-14.17209	11.27051
2.77920	-14.17209	11.27051
2.78340	-14.17209	11.27051
2.78758	-14.17209	11.27051
2.79179	-14.17209	11.27051
2.79598	-14.19406	11.27051
2.80017	-14.19406	11.27051
2.80444	-14.19406	11.27051
2.80872	-14.21603	11.27051
2.81292	-14.21603	11.27051
2.81712	-14.21603	11.27051
2.82130	-14.23800	11.27051
2.82549	-14.21603	11.27051
2.82967	-14.23800	11.27051
2.83406	-14.23800	11.27051
2.83834	-14.23800	11.27051
2.84254	-14.25998	11.27051
2.84673	-14.25998	11.27051
2.85092	-14.25998	11.27051
2.85512	-14.28195	11.27051
2.85930	-14.28195	11.27051
2.86349	-14.28195	11.27051
2.86779	-14.28195	11.27051
2.87199	-14.28195	11.27051
2.87618	-14.30392	11.27051
2.88037	-14.32589	11.27051
2.88455	-14.32589	11.27051
2.88873	-14.32589	11.27051
2.89292	-14.34787	11.27051
2.89732	-14.34787	11.27051
2.90153	-14.34787	11.27051
2.90572	-14.36984	11.27051
2.90990	-14.36984	11.27051
2.91409	-14.39181	11.27051
2.91828	-14.39181	11.27051
2.92246	-14.39181	11.27051
2.92673	-14.41379	11.27051
2.93100	-14.41379	11.27051
2.93530	-14.43576	11.27051
2.93949	-14.43576	11.27051
2.94367	-14.43576	11.27051
2.94786	-14.43576	11.27051
2.95204	-14.45773	11.27051
2.95629	-14.45773	11.27051
2.96057	-14.47970	11.27051
2.96477	-14.50168	11.27051
2.96895	-14.50168	11.27051
2.97314	-14.50168	11.27051
2.97733	-14.52365	11.27051
2.98151	-14.52365	11.27051
2.98571	-14.54562	11.27051
2.99002	-14.54562	11.27051
2.99423	-14.56759	11.27051
2.99842	-14.56759	11.27051
3.00261	-14.56759	11.27051
3.00679	-14.58957	11.27051
3.01098	-14.61154	11.27051
3.01518	-14.61154	11.27051
3.01960	-14.65548	11.27051
3.02383	-14.65548	11.27051
3.02803	-14.65548	11.27051
3.03222	-14.65548	11.27051
3.03651	-14.67746	11.27051
3.04069	-14.67746	11.27051
3.04488	-14.72140	11.27051
3.04914	-14.72140	11.27051
3.05340	-14.72140	11.27051
3.05760	-14.72140	11.27051
3.06179	-14.76535	11.27051
3.06597	-14.76535	11.27051
3.07016	-14.78732	11.27051
3.07434	-14.78732	11.27051
3.07859	-14.78732	11.27051
3.08287	-14.80929	11.27051
3.08708	-14.83127	11.27051
3.09126	-14.85324	11.27051
3.09545	-14.85324	11.27051
3.09963	-14.85324	11.27051
3.10382	-14.87521	11.27051
3.10800	-14.89718	11.27051
3.11230	-14.89718	11.27051
3.11650	-14.91916	11.27051
3.12069	-14.94113	11.27051
3.12488	-14.94113	11.27051
3.12906	-14.94113	11.27051
