Time (s)   roll (deg)   Delta
0.00033	-11.60129	11.27051
0.00462	-11.57931	11.27051
0.00890	-11.60129	11.27051
0.01312	-11.57931	11.27051
0.01732	-11.57931	11.27051
0.02151	-11.57931	11.27051
0.02569	-11.57931	11.27051
0.02987	-11.57931	11.27051
0.03412	-11.57931	11.27051
0.03838	-11.57931	11.27051
0.04259	-11.57931	11.27051
0.04678	-11.55734	11.27051
0.05096	-11.55734	11.27051
0.05513	-11.55734	11.27051
0.05930	-11.53537	11.27051
0.06347	-11.53537	11.27051
0.06776	-11.55734	11.27051
0.07195	-11.53537	11.27051
0.07612	-11.53537	11.27051
0.08029	-11.53537	11.27051
0.08446	-11.53537	11.27051
0.08863	-11.53537	11.27051
0.09280	-11.55734	11.27051
0.09708	-11.53537	11.27051
0.10137	-11.53537	11.27051
0.10554	-11.53537	11.27051
0.10972	-11.51339	11.27051
0.11389	-11.53537	11.27051
0.11806	-11.53537	11.27051
0.12222	-11.51339	11.27051
0.12651	-11.51339	11.27051
0.13073	-11.53537	11.27051
0.13491	-11.51339	11.27051
0.13908	-11.53537	11.27051
0.14325	-11.53537	11.27051
0.14742	-11.51339	11.27051
0.15159	-11.51339	11.27051
0.15584	-11.51339	11.27051
0.16012	-11.51339	11.27051
0.16431	-11.53537	11.27051
0.16850	-11.53537	11.27051
0.17268	-11.51339	11.27051
0.17687	-11.53537	11.27051
0.18106	-11.51339	11.27051
0.18524	-11.53537	11.27051
0.18953	-11.53537	11.27051
0.19386	-11.53537	11.27051
0.19810	-11.53537	11.27051
0.20243	-11.55734	11.27051
0.20662	-11.53537	11.27051
0.21081	-11.55734	11.27051
0.21500	-11.55734	11.27051
0.21941	-11.55734	11.27051
0.22361	-11.55734	11.27051
0.22778	-11.55734	11.27051
0.23197	-11.55734	11.27051
0.23616	-11.57931	11.27051
0.24034	-11.55734	11.27051
0.24453	-11.57931	11.27051
0.24886	-11.57931	11.27051
0.25311	-11.57931	11.27051
0.25730	-11.60129	11.27051
0.26149	-11.60129	11.27051
0.26569	-11.60129	11.27051
0.26993	-11.62326	11.27051
0.27414	-11.60129	11.27051
0.27971	-11.62326	11.27051
0.28401	-11.62326	11.27051
0.28823	-11.64523	11.27051
0.29243	-11.64523	11.27051
0.29664	-11.64523	11.27051
0.30084	-11.66720	11.27051
0.30519	-11.66720	11.27051
0.31057	-11.68918	11.27051
0.31488	-11.68918	11.27051
0.31909	-11.68918	11.27051
0.32330	-11.68918	11.27051
0.32750	-11.71115	11.27051
0.33172	-11.73312	11.27051
0.33592	-11.73312	11.27051
0.34149	-11.73312	11.27051
0.34583	-11.75509	11.27051
0.35005	-11.77707	11.27051
0.35425	-11.77707	11.27051
0.35846	-11.77707	11.27051
0.36266	-11.79904	11.27051
0.36687	-11.79904	11.27051
0.37195	-11.82101	11.27051
0.37626	-11.82101	11.27051
0.38047	-11.84298	11.27051
0.38469	-11.84298	11.27051
0.38889	-11.84298	11.27051
0.39309	-11.86496	11.27051
0.39728	-11.88693	11.27051
0.40153	-11.90890	11.27051
0.40581	-11.90890	11.27051
0.41013	-11.93088	11.27051
0.41433	-11.93088	11.27051
0.41852	-11.95285	11.27051
0.42271	-11.95285	11.27051
0.42690	-11.97482	11.27051
0.43109	-11.99679	11.27051
0.43540	-12.01877	11.27051
0.43960	-12.01877	11.27051
0.44380	-12.01877	11.27051
0.44800	-12.04074	11.27051
0.45218	-12.06271	11.27051
0.45638	-12.06271	11.27051
0.46058	-12.08468	11.27051
0.46500	-12.10666	11.27051
0.46921	-12.10666	11.27051
0.47341	-12.12863	11.27051
0.47760	-12.15060	11.27051
0.48179	-12.17257	11.27051
0.48598	-12.19455	11.27051
0.49016	-12.19455	11.27051
0.49451	-12.23849	11.27051
0.49877	-12.23849	11.27051
0.50297	-12.23849	11.27051
0.50716	-12.26047	11.27051
0.51145	-12.28244	11.27051
0.51564	-12.30441	11.27051
0.51983	-12.30441	11.27051
0.52408	-12.32638	11.27051
0.52836	-12.34836	11.27051
0.53255	-12.37033	11.27051
0.53674	-12.39230	11.27051
0.54092	-12.41427	11.27051
0.54510	-12.41427	11.27051
0.54929	-12.43625	11.27051
0.55347	-12.45822	11.27051
0.55776	-12.48019	11.27051
0.56197	-12.50216	11.27051
0.56616	-12.52414	11.27051
0.57034	-12.52414	11.27051
0.57452	-12.54611	11.27051
0.57871	-12.56808	11.27051
0.58289	-12.61203	11.27051
0.58718	-12.61203	11.27051
0.59140	-12.63400	11.27051
0.59559	-12.63400	11.27051
0.59978	-12.67795	11.27051
0.60396	-12.69992	11.27051
0.60814	-12.72189	11.27051
0.61243	-12.74386	11.27051
0.61676	-12.76584	11.27051
0.62101	-12.78781	11.27051
0.62520	-12.78781	11.27051
0.62939	-12.80978	11.27051
0.63357	-12.83175	11.27051
0.63775	-12.85373	11.27051
0.64194	-12.89767	11.27051
0.64618	-12.91964	11.27051
0.65045	-12.91964	11.27051
0.65465	-12.94162	11.27051
0.65883	-12.96359	11.27051
0.66301	-13.00754	11.27051
0.66720	-13.02951	11.27051
0.67138	-13.05148	11.27051
0.67556	-13.05148	11.27051
0.67988	-13.07345	11.27051
0.68409	-13.09543	11.27051
0.68828	-13.13937	11.27051
0.69247	-13.16134	11.27051
0.69666	-13.18332	11.27051
0.70084	-13.18332	11.27051
0.70503	-13.20529	11.27051
0.70939	-13.22726	11.27051
0.71370	-13.24923	11.27051
0.71789	-13.29318	11.27051
0.72207	-13.31515	11.27051
0.72626	-13.33713	11.27051
0.73044	-13.33713	11.27051
0.73463	-13.38107	11.27051
0.73895	-13.40304	11.27051
0.74321	-13.42502	11.27051
0.74741	-13.44699	11.27051
0.75160	-13.46896	11.27051
0.75578	-13.51291	11.27051
0.75996	-13.51291	11.27051
0.76414	-13.53488	11.27051
0.76841	-13.57882	11.27051
0.77269	-13.60080	11.27051
0.77689	-13.62277	11.27051
0.78108	-13.64474	11.27051
0.78526	-13.64474	11.27051
0.78945	-13.68869	11.27051
0.79363	-13.71066	11.27051
0.79782	-13.73263	11.27051
0.80211	-13.77658	11.27051
0.80632	-13.77658	11.27051
0.81050	-13.79855	11.27051
0.81479	-13.82052	11.27051
0.81897	-13.84250	11.27051
0.82316	-13.88644	11.27051
0.82734	-13.90841	11.27051
0.83165	-13.90841	11.27051
0.83585	-13.93039	11.27051
0.84004	-13.97433	11.27051
0.84422	-13.99631	11.27051
0.84841	-14.01828	11.27051
0.85259	-14.04025	11.27051
0.85677	-14.04025	11.27051
0.86111	-14.06222	11.27051
0.86535	-14.10617	11.27051
0.86954	-14.12814	11.27051
0.87373	-14.15011	11.27051
0.87791	-14.17209	11.27051
0.88209	-14.21603	11.27051
0.88628	-14.21603	11.27051
0.89052	-14.23800	11.27051
0.89479	-14.25998	11.27051
0.89898	-14.28195	11.27051
0.90317	-14.32589	11.27051
0.90735	-14.34787	11.27051
0.91153	-14.34787	11.27051
0.91583	-14.36984	11.27051
0.92001	-14.41379	11.27051
0.92430	-14.41379	11.27051
0.92850	-14.45773	11.27051
0.93269	-14.47970	11.27051
0.93687	-14.50168	11.27051
0.94105	-14.50168	11.27051
0.94523	-14.54562	11.27051
0.94941	-14.56759	11.27051
0.95371	-14.58957	11.27051
0.95795	-14.61154	11.27051
0.96215	-14.63351	11.27051
0.96634	-14.63351	11.27051
0.97053	-14.65548	11.27051
0.97471	-14.67746	11.27051
0.97890	-14.72140	11.27051
0.98321	-14.74338	11.27051
0.98747	-14.76535	11.27051
0.99167	-14.76535	11.27051
0.99586	-14.78732	11.27051
1.00005	-14.80929	11.27051
1.00423	-14.83127	11.27051
1.00842	-14.85324	11.27051
1.01266	-14.87521	11.27051
1.01703	-14.89718	11.27051
1.02123	-14.89718	11.27051
1.02541	-14.91916	11.27051
1.02960	-14.96310	11.27051
1.03378	-14.98507	11.27051
1.03796	-15.00705	11.27051
1.04214	-15.00705	11.27051
1.04644	-15.02902	11.27051
1.05064	-15.05099	11.27051
1.05483	-15.07297	11.27051
1.05901	-15.11691	11.27051
1.06319	-15.11691	11.27051
1.06738	-15.11691	11.27051
1.07156	-15.13888	11.27051
1.07587	-15.18283	11.27051
1.08007	-15.20480	11.27051
1.08430	-15.22677	11.27051
1.08851	-15.22677	11.27051
1.09272	-15.27072	11.27051
1.09693	-15.27072	11.27051
1.10113	-15.27072	11.27051
1.10560	-15.31466	11.27051
1.10990	-15.33664	11.27051
1.11411	-15.33664	11.27051
1.11845	-15.38058	11.27051
1.12268	-15.38058	11.27051
1.12692	-15.40256	11.27051
1.13114	-15.42453	11.27051
1.13593	-15.42453	11.27051
1.14023	-15.44650	11.27051
1.14444	-15.46847	11.27051
1.14863	-15.49045	11.27051
1.15283	-15.51242	11.27051
1.15702	-15.51242	11.27051
1.16120	-15.53439	11.27051
1.16539	-15.55636	11.27051
1.16968	-15.57834	11.27051
1.17388	-15.60031	11.27051
1.17808	-15.62228	11.27051
1.18227	-15.62228	11.27051
1.18646	-15.64425	11.27051
1.19064	-15.66623	11.27051
1.19483	-15.68820	11.27051
1.19911	-15.71017	11.27051
1.20333	-15.73214	11.27051
1.20753	-15.73214	11.27051
1.21173	-15.75412	11.27051
1.21592	-15.75412	11.27051
1.22021	-15.77609	11.27051
1.22439	-15.79806	11.27051
1.22874	-15.82004	11.27051
1.23298	-15.84201	11.27051
1.23717	-15.84201	11.27051
1.24136	-15.86398	11.27051
1.24555	-15.86398	11.27051
1.24973	-15.88595	11.27051
1.25392	-15.90793	11.27051
1.25816	-15.90793	11.27051
1.26241	-15.92990	11.27051
1.26661	-15.92990	11.27051
1.27079	-15.95187	11.27051
1.27498	-15.97384	11.27051
1.27917	-15.99582	11.27051
1.28335	-16.01779	11.27051
1.28753	-16.01779	11.27051
1.29182	-16.03976	11.27051
1.29603	-16.03976	11.27051
1.30022	-16.06173	11.27051
1.30440	-16.08371	11.27051
1.30858	-16.10568	11.27051
1.31277	-16.10568	11.27051
1.31695	-16.10568	11.27051
1.32133	-16.12765	11.27051
1.32554	-16.14963	11.27051
1.32973	-16.14963	11.27051
1.33392	-16.14963	11.27051
1.33810	-16.17160	11.27051
1.34228	-16.19357	11.27051
1.34647	-16.19357	11.27051
1.35078	-16.21554	11.27051
1.35503	-16.21554	11.27051
1.35922	-16.23752	11.27051
1.36341	-16.23752	11.27051
1.36759	-16.23752	11.27051
1.37177	-16.25949	11.27051
1.37596	-16.28146	11.27051
1.38019	-16.30343	11.27051
1.38445	-16.30343	11.27051
1.38865	-16.30343	11.27051
1.39284	-16.30343	11.27051
1.39702	-16.32541	11.27051
1.40121	-16.32541	11.27051
1.40539	-16.34738	11.27051
1.40958	-16.34738	11.27051
1.41385	-16.34738	11.27051
1.41813	-16.36935	11.27051
1.42243	-16.36935	11.27051
1.42662	-16.39132	11.27051
1.43080	-16.41330	11.27051
1.43499	-16.39132	11.27051
1.43917	-16.41330	11.27051
1.44346	-16.41330	11.27051
1.44768	-16.41330	11.27051
1.45187	-16.41330	11.27051
1.45606	-16.43527	11.27051
1.46024	-16.43527	11.27051
1.46446	-16.45724	11.27051
1.46865	-16.45724	11.27051
1.47298	-16.45724	11.27051
1.47722	-16.45724	11.27051
1.48141	-16.45724	11.27051
1.48560	-16.45724	11.27051
1.48980	-16.45724	11.27051
1.49401	-16.47922	11.27051
1.49821	-16.47922	11.27051
1.50251	-16.50119	11.27051
1.50678	-16.50119	11.27051
1.51101	-16.50119	11.27051
1.51520	-16.50119	11.27051
1.51939	-16.50119	11.27051
1.52370	-16.52316	11.27051
1.52788	-16.52316	11.27051
1.53207	-16.52316	11.27051
1.53636	-16.52316	11.27051
1.54056	-16.52316	11.27051
1.54476	-16.52316	11.27051
1.54894	-16.52316	11.27051
1.55313	-16.52316	11.27051
1.55732	-16.52316	11.27051
1.56150	-16.52316	11.27051
1.56579	-16.52316	11.27051
1.57001	-16.54513	11.27051
1.57420	-16.54513	11.27051
1.57839	-16.54513	11.27051
1.58258	-16.54513	11.27051
1.58676	-16.54513	11.27051
1.59094	-16.54513	11.27051
1.59526	-16.54513	11.27051
1.59949	-16.54513	11.27051
1.60369	-16.54513	11.27051
1.60787	-16.54513	11.27051
1.61206	-16.54513	11.27051
1.61624	-16.54513	11.27051
1.62042	-16.54513	11.27051
1.62476	-16.54513	11.27051
1.62901	-16.52316	11.27051
1.63320	-16.54513	11.27051
1.63739	-16.54513	11.27051
1.64157	-16.54513	11.27051
1.64576	-16.54513	11.27051
1.64994	-16.54513	11.27051
1.65413	-16.54513	11.27051
1.65840	-16.54513	11.27051
1.66261	-16.52316	11.27051
1.66680	-16.52316	11.27051
1.67098	-16.52316	11.27051
1.67516	-16.52316	11.27051
1.67934	-16.52316	11.27051
1.68353	-16.52316	11.27051
1.68783	-16.52316	11.27051
1.69204	-16.52316	11.27051
1.69623	-16.52316	11.27051
1.70041	-16.50119	11.27051
1.70459	-16.50119	11.27051
1.70878	-16.50119	11.27051
1.71296	-16.50119	11.27051
1.71727	-16.50119	11.27051
1.72151	-16.50119	11.27051
1.72580	-16.47922	11.27051
1.72998	-16.47922	11.27051
1.73416	-16.47922	11.27051
1.73835	-16.47922	11.27051
1.74253	-16.47922	11.27051
1.74676	-16.45724	11.27051
1.75101	-16.45724	11.27051
1.75521	-16.45724	11.27051
1.75940	-16.45724	11.27051
1.76359	-16.45724	11.27051
1.76777	-16.43527	11.27051
1.77196	-16.43527	11.27051
1.77614	-16.43527	11.27051
1.78042	-16.43527	11.27051
1.78462	-16.43527	11.27051
1.78880	-16.41330	11.27051
1.79299	-16.41330	11.27051
1.79717	-16.39132	11.27051
1.80135	-16.39132	11.27051
1.80554	-16.39132	11.27051
1.80982	-16.39132	11.27051
1.81403	-16.36935	11.27051
1.81822	-16.36935	11.27051
1.82240	-16.36935	11.27051
1.82669	-16.34738	11.27051
1.83087	-16.34738	11.27051
1.83505	-16.34738	11.27051
1.83936	-16.32541	11.27051
1.84359	-16.32541	11.27051
1.84778	-16.32541	11.27051
1.85196	-16.30343	11.27051
1.85615	-16.30343	11.27051
1.86033	-16.30343	11.27051
1.86451	-16.30343	11.27051
1.86874	-16.28146	11.27051
1.87299	-16.28146	11.27051
1.87720	-16.25949	11.27051
1.88138	-16.25949	11.27051
1.88556	-16.25949	11.27051
1.88975	-16.25949	11.27051
1.89393	-16.23752	11.27051
1.89811	-16.21554	11.27051
1.90238	-16.21554	11.27051
1.90659	-16.21554	11.27051
1.91078	-16.19357	11.27051
1.91496	-16.19357	11.27051
1.91914	-16.19357	11.27051
1.92333	-16.19357	11.27051
1.92761	-16.17160	11.27051
1.93187	-16.17160	11.27051
1.93608	-16.17160	11.27051
1.94026	-16.14963	11.27051
1.94445	-16.14963	11.27051
1.94863	-16.14963	11.27051
1.95281	-16.12765	11.27051
1.95702	-16.10568	11.27051
1.96135	-16.10568	11.27051
1.96559	-16.10568	11.27051
1.96978	-16.10568	11.27051
1.97397	-16.08371	11.27051
1.97815	-16.08371	11.27051
1.98234	-16.06173	11.27051
1.98652	-16.06173	11.27051
1.99076	-16.03976	11.27051
1.99501	-16.03976	11.27051
1.99921	-16.03976	11.27051
2.00340	-16.03976	11.27051
2.00759	-16.03976	11.27051
2.01177	-16.01779	11.27051
2.01596	-16.01779	11.27051
2.02014	-15.99582	11.27051
2.02442	-15.99582	11.27051
2.02873	-15.97384	11.27051
2.03292	-15.97384	11.27051
2.03710	-15.97384	11.27051
2.04129	-15.95187	11.27051
2.04547	-15.95187	11.27051
2.04965	-15.95187	11.27051
2.05394	-15.92990	11.27051
2.05815	-15.92990	11.27051
2.06234	-15.90793	11.27051
2.06652	-15.90793	11.27051
2.07071	-15.90793	11.27051
2.07489	-15.90793	11.27051
2.07907	-15.88595	11.27051
2.08338	-15.86398	11.27051
2.08761	-15.86398	11.27051
2.09178	-15.86398	11.27051
2.09597	-15.86398	11.27051
2.10015	-15.84201	11.27051
2.10434	-15.84201	11.27051
2.10852	-15.82004	11.27051
2.11275	-15.82004	11.27051
2.11700	-15.79806	11.27051
2.12120	-15.79806	11.27051
2.12538	-15.79806	11.27051
2.12967	-15.79806	11.27051
2.13386	-15.77609	11.27051
2.13804	-15.77609	11.27051
2.14222	-15.75412	11.27051
2.14650	-15.75412	11.27051
2.15071	-15.75412	11.27051
2.15489	-15.73214	11.27051
2.15908	-15.71017	11.27051
2.16326	-15.73214	11.27051
2.16745	-15.71017	11.27051
2.17163	-15.71017	11.27051
2.17588	-15.68820	11.27051
2.18008	-15.68820	11.27051
2.18427	-15.68820	11.27051
2.18845	-15.66623	11.27051
2.19264	-15.66623	11.27051
2.19682	-15.66623	11.27051
2.20101	-15.64425	11.27051
2.20535	-15.64425	11.27051
2.20959	-15.62228	11.27051
2.21378	-15.62228	11.27051
2.21797	-15.60031	11.27051
2.22216	-15.60031	11.27051
2.22634	-15.60031	11.27051
2.23063	-15.60031	11.27051
2.23488	-15.57834	11.27051
2.23913	-15.57834	11.27051
2.24333	-15.57834	11.27051
2.24752	-15.55636	11.27051
2.25171	-15.53439	11.27051
2.25589	-15.53439	11.27051
2.26009	-15.53439	11.27051
2.26427	-15.53439	11.27051
2.26855	-15.51242	11.27051
2.27275	-15.51242	11.27051
2.27694	-15.51242	11.27051
2.28112	-15.49045	11.27051
2.28531	-15.49045	11.27051
2.28949	-15.49045	11.27051
2.29367	-15.46847	11.27051
2.29796	-15.46847	11.27051
2.30217	-15.46847	11.27051
2.30635	-15.46847	11.27051
2.31054	-15.44650	11.27051
2.31472	-15.44650	11.27051
2.31891	-15.42453	11.27051
2.32309	-15.42453	11.27051
2.32740	-15.42453	11.27051
2.33174	-15.42453	11.27051
2.33593	-15.40256	11.27051
2.34012	-15.40256	11.27051
2.34430	-15.38058	11.27051
2.34849	-15.38058	11.27051
2.35267	-15.38058	11.27051
2.35691	-15.35861	11.27051
2.36116	-15.35861	11.27051
2.36536	-15.35861	11.27051
2.36955	-15.33664	11.27051
2.37373	-15.33664	11.27051
2.37791	-15.31466	11.27051
2.38210	-15.31466	11.27051
2.38629	-15.31466	11.27051
2.39057	-15.31466	11.27051
2.39478	-15.29269	11.27051
2.39897	-15.29269	11.27051
2.40316	-15.29269	11.27051
2.40734	-15.29269	11.27051
2.41152	-15.29269	11.27051
2.41572	-15.27072	11.27051
2.42002	-15.27072	11.27051
2.42424	-15.24875	11.27051
2.42844	-15.24875	11.27051
2.43274	-15.24875	11.27051
2.43693	-15.24875	11.27051
2.44111	-15.22677	11.27051
2.44529	-15.22677	11.27051
2.44963	-15.22677	11.27051
2.45387	-15.20480	11.27051
2.45806	-15.20480	11.27051
2.46226	-15.20480	11.27051
2.46648	-15.20480	11.27051
2.47066	-15.18283	11.27051
2.47485	-15.18283	11.27051
2.47913	-15.16086	11.27051
2.48340	-15.16086	11.27051
2.48761	-15.16086	11.27051
2.49178	-15.13888	11.27051
2.49597	-15.13888	11.27051
2.50016	-15.13888	11.27051
2.50434	-15.13888	11.27051
2.50853	-15.11691	11.27051
2.51281	-15.11691	11.27051
2.51702	-15.11691	11.27051
2.52121	-15.11691	11.27051
2.52541	-15.09494	11.27051
2.52960	-15.09494	11.27051
2.53390	-15.07297	11.27051
2.53808	-15.07297	11.27051
2.54237	-15.07297	11.27051
2.54659	-15.07297	11.27051
2.55078	-15.05099	11.27051
2.55497	-15.05099	11.27051
2.55915	-15.05099	11.27051
2.56335	-15.02902	11.27051
2.56753	-15.02902	11.27051
2.57186	-15.02902	11.27051
2.57610	-15.00705	11.27051
2.58029	-15.00705	11.27051
2.58448	-15.00705	11.27051
2.58866	-15.00705	11.27051
2.59285	-15.00705	11.27051
2.59703	-14.98507	11.27051
2.60127	-14.96310	11.27051
2.60552	-14.96310	11.27051
2.60972	-14.96310	11.27051
2.61390	-14.96310	11.27051
2.61809	-14.94113	11.27051
2.62227	-14.94113	11.27051
2.62646	-14.94113	11.27051
2.63064	-14.91916	11.27051
2.63502	-14.91916	11.27051
2.63923	-14.89718	11.27051
2.64341	-14.89718	11.27051
2.64760	-14.89718	11.27051
2.65178	-14.89718	11.27051
2.65596	-14.87521	11.27051
2.66015	-14.87521	11.27051
2.66443	-14.85324	11.27051
2.66864	-14.85324	11.27051
2.67283	-14.85324	11.27051
2.67701	-14.85324	11.27051
2.68120	-14.83127	11.27051
2.68538	-14.83127	11.27051
2.68956	-14.80929	11.27051
2.69387	-14.80929	11.27051
2.69810	-14.80929	11.27051
2.70229	-14.80929	11.27051
2.70647	-14.78732	11.27051
2.71066	-14.78732	11.27051
2.71485	-14.76535	11.27051
2.71903	-14.76535	11.27051
2.72326	-14.76535	11.27051
2.72752	-14.74338	11.27051
2.73173	-14.74338	11.27051
2.73602	-14.74338	11.27051
2.74021	-14.72140	11.27051
2.74439	-14.69943	11.27051
2.74857	-14.69943	11.27051
2.75276	-14.69943	11.27051
2.75704	-14.69943	11.27051
2.76124	-14.67746	11.27051
2.76543	-14.65548	11.27051
2.76962	-14.65548	11.27051
2.77380	-14.65548	11.27051
2.77799	-14.63351	11.27051
2.78217	-14.63351	11.27051
2.78645	-14.61154	11.27051
2.79067	-14.61154	11.27051
2.79486	-14.58957	11.27051
2.79905	-14.58957	11.27051
2.80323	-14.58957	11.27051
2.80741	-14.58957	11.27051
2.81160	-14.56759	11.27051
2.81590	-14.54562	11.27051
2.82013	-14.54562	11.27051
2.82432	-14.52365	11.27051
2.82850	-14.52365	11.27051
2.83269	-14.52365	11.27051
2.83697	-14.52365	11.27051
2.84116	-14.50168	11.27051
2.84542	-14.47970	11.27051
2.84968	-14.47970	11.27051
2.85388	-14.47970	11.27051
2.85807	-14.47970	11.27051
2.86226	-14.45773	11.27051
2.86645	-14.43576	11.27051
2.87064	-14.43576	11.27051
2.87482	-14.43576	11.27051
2.87911	-14.43576	11.27051
2.88332	-14.41379	11.27051
2.88750	-14.41379	11.27051
2.89170	-14.39181	11.27051
2.89588	-14.39181	11.27051
2.90006	-14.36984	11.27051
2.90425	-14.36984	11.27051
2.90853	-14.36984	11.27051
2.91274	-14.36984	11.27051
2.91693	-14.32589	11.27051
2.92112	-14.32589	11.27051
2.92530	-14.32589	11.27051
2.92949	-14.32589	11.27051
2.93367	-14.30392	11.27051
2.93810	-14.30392	11.27051
2.94231	-14.28195	11.27051
2.94650	-14.28195	11.27051
2.95068	-14.25998	11.27051
2.95487	-14.25998	11.27051
2.95905	-14.25998	11.27051
2.96323	-14.23800	11.27051
2.96748	-14.23800	11.27051
2.97174	-14.21603	11.27051
2.97595	-14.21603	11.27051
2.98014	-14.19406	11.27051
2.98432	-14.19406	11.27051
2.98851	-14.19406	11.27051
2.99269	-14.19406	11.27051
2.99688	-14.17209	11.27051
3.00115	-14.15011	11.27051
3.00536	-14.15011	11.27051
3.00954	-14.15011	11.27051
3.01373	-14.15011	11.27051
3.01791	-14.12814	11.27051
3.02210	-14.10617	11.27051
3.02628	-14.10617	11.27051
3.03056	-14.10617	11.27051
3.03478	-14.10617	11.27051
3.03907	-14.08420	11.27051
3.04325	-14.08420	11.27051
3.04744	-14.06222	11.27051
3.05162	-14.06222	11.27051
3.05577	-14.04025	11.27051
3.06009	-14.04025	11.27051
3.06432	-14.04025	11.27051
3.06852	-14.04025	11.27051
3.07270	-14.01828	11.27051
3.07688	-14.01828	11.27051
3.08107	-13.99631	11.27051
3.08525	-13.99631	11.27051
3.08948	-13.99631	11.27051
3.09373	-13.97433	11.27051
3.09793	-13.97433	11.27051
3.10212	-13.95236	11.27051
3.10630	-13.95236	11.27051
3.11049	-13.95236	11.27051
3.11467	-13.95236	11.27051
