Time (s)   Thrust (N)   RPM
0.00024	1.66380	3322.83200
0.03350	1.29983	2914.40200
0.11307	1.15003	2766.86900
0.14779	1.01174	2612.21500
0.18255	0.92813	2526.04100
0.21730	0.83054	2431.36600
0.25207	0.77932	2317.21600
0.28681	0.70604	2254.46400
0.32156	0.66250	2189.01600
0.35632	0.61596	2120.75200
0.39107	0.58441	2068.01400
0.42582	0.55025	2018.87300
0.46059	0.52470	1977.10300
0.49533	0.49869	1916.76900
0.53009	0.48119	1907.81200
0.56485	0.46579	1865.62500
0.59959	0.44517	1865.43300
0.63435	0.42966	1841.51700
0.66910	0.41296	1812.81800
0.70386	0.41606	1788.90300
0.73908	0.39135	1745.85400
0.81745	0.38329	1754.18800
0.85220	0.37822	1739.69000
0.88695	0.37292	1707.58900
0.92171	0.36726	1693.23900
0.95646	0.36501	1710.69500
0.99122	0.36013	1696.19800
1.02596	0.35676	1686.53300
1.06072	0.35462	1699.21800
1.09548	0.35015	1676.86800
1.13022	0.34870	1684.57000
1.21000	0.34428	1662.37100
1.24470	0.34486	1657.53800
1.27945	0.34879	1669.92100
1.31421	0.34625	1647.87300
1.34896	0.34100	1647.87300
1.38371	0.33822	1660.15600
1.41847	0.33753	1660.15600
1.45322	0.33612	1660.15600
1.48798	0.33679	1660.15600
1.52273	0.33952	1655.27300
1.55750	0.33601	1655.27300
1.59224	0.33627	1650.39000
1.62700	0.33240	1633.37600
1.66174	0.33302	1650.39000
1.69650	0.33216	1645.50700
1.73127	0.33470	1645.50700
1.76601	0.33628	1650.39000
1.80079	0.33652	1645.50700
1.83552	0.33285	1645.50700
1.87029	0.33291	1640.62500
1.90504	0.33510	1645.50700
1.93982	0.33993	1645.50700
1.97457	0.32509	1628.54300
2.00930	0.34122	1650.39000
2.04406	0.33636	1650.39000
2.07881	0.34104	1645.50700
2.11357	0.33480	1645.50700
2.14832	0.33435	1645.50700
2.18308	0.33371	1645.50700
2.21783	0.33449	1650.39000
2.29758	0.33397	1645.50700
2.33233	0.33008	1645.50700
2.36707	0.33723	1645.50700
2.40184	0.33133	1645.50700
2.43658	0.33493	1645.50700
2.47134	0.33528	1628.54300
2.50609	0.33114	1645.50700
2.54085	0.33005	1645.50700
2.57561	0.33258	1623.71100
2.61036	0.33763	1645.50700
2.64511	0.33471	1645.50700
2.67987	0.33930	1628.54300
2.71462	0.33690	1645.50700
2.74937	0.33305	1640.62500
2.78414	0.33381	1623.71100
2.81888	0.33886	1640.62500
2.85364	0.33836	1640.62500
2.88838	0.33794	1645.50700
2.92315	0.33439	1628.54300
2.95790	0.33221	1645.50700
2.99268	0.33072	1645.50700
3.02743	0.33607	1645.50700
3.10616	0.33286	1645.50700
3.14091	0.33117	1645.50700
3.17567	0.33137	1650.39000
3.21042	0.33280	1628.54300
3.24520	0.33417	1640.62500
3.27995	0.33666	1645.50700
3.31470	0.33307	1628.54300
3.34944	0.33059	1645.50700
3.38420	0.33397	1628.54300
3.41896	0.33387	1640.62500
3.45371	0.33417	1640.62500
3.48847	0.33765	1628.54300
3.52322	0.33690	1645.50700
3.55797	0.33553	1645.50700
3.59272	0.33246	1640.62500
3.62749	0.33537	1645.50700
3.66223	0.33642	1640.62500
3.69700	0.33672	1640.62500
3.73175	0.33528	1640.62500
3.76651	0.33410	1633.37600
3.80126	0.33303	1645.50700
3.83602	0.33274	1645.50700
3.87077	0.33423	1628.54300
3.90551	0.33671	1640.62500
3.94027	0.33654	1645.50700
3.97503	0.33653	1645.50700
4.00978	0.33311	1623.71100
4.04454	0.33387	1640.62500
4.07930	0.33459	1645.50700
4.11404	0.33710	1640.62500
4.14880	0.33842	1623.71100
4.18355	0.33788	1640.62500
4.21831	0.33248	1635.74200
4.25306	0.33247	1640.62500
4.28781	0.33296	1645.50700
4.32258	0.33511	1623.71100
4.35732	0.33740	1640.62500
4.39208	0.33719	1645.50700
4.42683	0.33475	1623.71100
4.50607	0.33695	1623.71100
4.54083	0.33834	1640.62500
4.57558	0.33529	1640.62500
4.61034	0.33284	1640.62500
4.64509	0.33054	1640.62500
4.67985	0.33195	1645.50700
4.71460	0.33354	1635.74200
4.74935	0.33602	1640.62500
4.78410	0.33361	1645.50700
4.81886	0.33810	1640.62500
4.89811	0.33471	1640.62500
4.93285	0.33506	1640.62500
4.96758	0.33290	1640.62500
5.00236	0.33127	1640.62500
5.03711	0.32835	1640.62500
5.07187	0.32943	1623.71100
5.10662	0.33011	1623.71100
5.14137	0.33288	1623.71100
5.17614	0.33273	1640.62500
5.21088	0.32977	1645.50700
5.24564	0.32828	1640.62500
5.28040	0.32921	1640.62500
5.31515	0.33036	1628.54300
5.34990	0.33315	1645.50700
5.38466	0.33128	1645.50700
5.41941	0.32742	1640.62500
5.45417	0.32770	1645.50700
5.48892	0.32772	1645.50700
5.52367	0.32680	1650.39000
5.55842	0.32753	1628.54300
5.59318	0.32852	1650.39000
5.62793	0.32824	1633.37600
5.66270	0.32633	1645.50700
5.69744	0.32634	1645.50700
5.73220	0.32715	1645.50700
5.76696	0.33085	1650.39000
5.80171	0.32952	1633.37600
5.83647	0.33179	1633.37600
5.87121	0.32984	1650.39000
5.90596	0.32771	1645.50700
5.94072	0.32712	1645.50700
5.97547	0.32833	1655.27300
0.00019	0.32682	1889.06200
0.03463	0.82824	2558.77300
0.11296	1.01886	2816.61100
0.14771	1.17156	2952.72400
0.18247	1.31889	3068.53900
0.21721	1.41992	3183.59300
0.25197	1.49719	3288.93400
0.28672	1.57829	3315.27200
0.32147	1.62542	3375.75600
0.35623	1.66743	3408.75000
0.39099	1.70072	3446.25000
0.42574	1.72534	3428.88700
0.46049	1.74723	3454.72400
0.49525	1.76014	3476.86900
0.52999	1.77896	3495.32400
0.56476	1.78104	3479.00400
0.59950	1.78962	3510.08800
0.63426	1.79743	3524.85200
0.66901	1.79874	3497.31400
0.70377	1.80281	3532.23400
0.73852	1.80970	3504.63800
0.77328	1.80937	3511.96300
0.80803	1.81124	3508.30000
0.84280	1.81027	3511.96300
0.87754	1.81195	3515.62500
0.91229	1.81480	3515.62500
0.94708	1.81253	3519.28700
0.98182	1.81182	3488.37200
1.06098	1.81295	3519.28700
1.09572	1.81393	3519.28700
1.13049	1.81568	3519.28700
1.16523	1.81268	3522.94900
1.20000	1.81848	3519.28700
1.23474	1.81849	3519.28700
1.26949	1.82122	3492.00500
1.30426	1.81680	3519.28700
1.33901	1.81500	3522.94900
1.37377	1.81981	3519.28700
1.40851	1.81843	3515.62500
1.44327	1.81597	3522.94900
1.47802	1.81913	3519.28700
1.51278	1.81452	3519.28700
1.54753	1.81534	3522.94900
1.58229	1.81761	3519.28700
1.61704	1.81966	3495.63900
1.65180	1.81437	3522.94900
1.68654	1.82023	3522.94900
1.72130	1.82340	3522.94900
1.75606	1.81481	3526.61100
1.79081	1.81769	3519.28700
1.82556	1.81878	3526.61100
1.86032	1.82344	3522.94900
1.89509	1.82131	3519.28700
1.97345	1.82343	3522.94900
2.00821	1.82168	3499.27300
2.04296	1.82185	3519.28700
2.07772	1.81640	3522.94900
2.11247	1.81607	3519.28700
2.14722	1.81769	3522.94900
2.18198	1.81607	3526.61100
2.21673	1.81783	3526.61100
2.25149	1.82029	3519.28700
2.28624	1.82107	3499.27300
2.32100	1.81516	3522.94900
2.35574	1.82014	3526.61100
2.39050	1.81952	3519.28700
2.42526	1.81901	3526.61100
2.46002	1.82129	3522.94900
2.49477	1.81905	3495.63900
2.52953	1.81419	3522.94900
2.56429	1.81910	3526.61100
2.59903	1.81991	3522.94900
2.63379	1.82032	3495.63900
2.66856	1.82549	3499.27300
2.70332	1.81942	3522.94900
2.73806	1.81966	3522.94900
2.77281	1.81628	3526.61100
2.80757	1.81991	3530.27300
2.84232	1.82236	3530.27300
2.87709	1.81686	3495.63900
2.91183	1.81405	3526.61100
2.94657	1.81512	3522.94900
2.98135	1.81523	3526.61100
3.01609	1.82008	3522.94900
3.05085	1.81930	3526.61100
3.08560	1.81458	3495.63900
3.12035	1.81274	3526.61100
3.15511	1.81554	3526.61100
3.18986	1.81370	3522.94900
3.22463	1.81544	3522.94900
3.25937	1.81146	3495.63900
3.29414	1.81351	3522.94900
3.32889	1.81701	3522.94900
3.36366	1.81356	3530.27300
3.39840	1.81722	3526.61100
3.43316	1.81569	3526.61100
3.46791	1.81413	3533.93500
3.50266	1.81235	3530.27300
3.53741	1.81775	3533.93500
3.57216	1.81670	3533.93500
3.60692	1.81612	3530.27300
3.64169	1.81210	3533.93500
3.67643	1.82052	3533.93500
3.71118	1.81817	3537.59700
3.74593	1.81603	3510.17400
3.78069	1.81601	3506.54000
3.81544	1.81366	3506.54000
3.85020	1.81613	3537.59700
3.88495	1.81911	3533.93500
3.91971	1.81969	3537.59700
3.95445	1.81848	3530.27300
3.98921	1.81766	3510.17400
4.02397	1.82065	3510.17400
4.05872	1.82011	3533.93500
4.09348	1.81648	3502.90700
4.12824	1.81505	3530.27300
4.16300	1.82308	3537.59700
4.24139	1.81544	3502.90700
4.27614	1.82500	3506.54000
4.31090	1.81213	3502.90700
4.34564	1.82056	3537.59700
4.38041	1.81344	3533.93500
4.41516	1.81936	3502.90700
4.44990	1.81995	3533.93500
4.48467	1.82334	3533.93500
4.51943	1.81492	3530.27300
4.55418	1.81757	3502.90700
4.63402	1.81853	3502.90700
4.66878	1.81348	3530.27300
4.70354	1.81281	3533.93500
4.73830	1.81265	3530.27300
4.77305	1.81352	3533.93500
4.80780	1.81541	3533.93500
4.84256	1.82446	3530.27300
4.87731	1.81527	3533.93500
4.91206	1.81664	3530.27300
4.94681	1.81497	3533.93500
4.98157	1.81608	3530.27300
5.01632	1.81213	3526.61100
5.05108	1.81354	3530.27300
5.08583	1.81946	3530.27300
5.12058	1.81459	3499.27300
5.15534	1.81364	3502.90700
5.19009	1.81676	3506.54000
5.22485	1.81196	3526.61100
5.25961	1.81439	3530.27300
5.29435	1.81381	3533.93500
5.32912	1.81286	3502.90700
5.36386	1.82073	3506.54000
5.39862	1.81486	3537.59700
5.43337	1.81962	3530.27300
5.46813	1.81622	3533.93500
5.50289	1.81617	3533.93500
5.53764	1.81383	3533.93500
5.57240	1.81300	3530.27300
5.60715	1.81089	3533.93500
5.64192	1.81218	3533.93500
5.67666	1.81547	3537.59700
5.71142	1.81093	3506.54000
5.74617	1.81428	3506.54000
5.78092	1.81302	3506.54000
5.81568	1.81617	3506.54000
5.85042	1.81834	3506.54000
5.88519	1.80769	3537.59700
5.91993	1.80912	3537.59700
5.95469	1.80775	3533.93500
5.98944	1.81806	3513.80800
