Time (s)   Thrust (N)   RPM
0.00025	1.81575	3492.00500
0.03335	1.72511	3323.17000
0.06805	1.49333	3117.18700
0.10280	1.30530	2982.22000
0.13755	1.13983	2771.01700
0.17230	1.01453	2652.02700
0.20704	0.92773	2563.07300
0.24181	0.83006	2440.12800
0.27655	0.77096	2361.43800
0.31131	0.70124	2285.15600
0.34606	0.65489	2208.53300
0.38082	0.62290	2134.40500
0.41557	0.57941	2104.77900
0.45032	0.54103	2051.36100
0.48507	0.51428	2006.25000
0.51983	0.49438	1953.89800
0.55458	0.47822	1926.56200
0.58934	0.46230	1893.75000
0.62409	0.44240	1851.56200
0.65884	0.42608	1846.59100
0.69360	0.41319	1822.91600
0.72836	0.40001	1817.60200
0.76311	0.39274	1780.30300
0.79787	0.38759	1784.12000
0.83262	0.38317	1760.20400
0.86737	0.37539	1750.63700
0.90213	0.37215	1754.18800
0.93687	0.36463	1739.69000
0.97163	0.36048	1734.85800
1.00638	0.35713	1720.36000
1.04114	0.35472	1715.52800
1.07588	0.35264	1693.23900
1.11063	0.34963	1701.03000
1.14539	0.34543	1701.03000
1.18014	0.34247	1691.36600
1.21489	0.33987	1686.53300
1.24964	0.33912	1686.53300
1.28439	0.33570	1699.21800
1.31915	0.33328	1676.86800
1.35390	0.33199	1676.86800
1.38866	0.32954	1689.45300
1.42342	0.33016	1667.20300
1.45817	0.32810	1672.03600
1.49292	0.32790	1684.57000
1.52767	0.32897	1672.03600
1.56243	0.32901	1662.37100
1.59718	0.33247	1679.68700
1.63194	0.33216	1662.37100
1.66669	0.32909	1674.80400
1.70144	0.32730	1674.80400
1.73620	0.32418	1657.53800
1.77094	0.32405	1657.53800
1.80571	0.32537	1657.53800
1.84045	0.32532	1669.92100
1.87521	0.32811	1674.80400
1.90996	0.33061	1657.53800
1.94472	0.32940	1657.53800
1.97947	0.32651	1674.80400
2.01423	0.32587	1679.68700
2.04899	0.32496	1674.80400
2.08375	0.32456	1674.80400
2.11849	0.32248	1657.53800
2.15325	0.32507	1657.53800
2.18800	0.32718	1657.53800
2.22276	0.32938	1674.80400
2.25751	0.32820	1669.92100
2.29225	0.32436	1669.92100
2.32701	0.32384	1674.80400
2.36177	0.32436	1669.92100
2.39651	0.32525	1674.80400
2.43126	0.32548	1652.70600
2.46601	0.32571	1657.53800
2.50076	0.32759	1652.70600
2.53552	0.32614	1652.70600
2.57027	0.32478	1657.53800
2.60502	0.32490	1674.80400
2.63978	0.32358	1669.92100
2.67453	0.32238	1669.92100
2.70929	0.32412	1674.80400
2.74404	0.32580	1657.53800
2.77879	0.32643	1657.53800
2.81354	0.32674	1657.53800
2.84830	0.32565	1657.53800
2.88306	0.32547	1674.80400
2.91781	0.32423	1674.80400
2.95256	0.32275	1674.80400
2.98732	0.32254	1674.80400
3.02207	0.32225	1657.53800
3.05683	0.32463	1652.70600
3.09158	0.32859	1657.53800
3.12633	0.32612	1657.53800
3.16109	0.32741	1657.53800
3.19584	0.32594	1669.92100
3.23060	0.32538	1669.92100
3.26534	0.32363	1674.80400
3.30011	0.32231	1674.80400
3.33486	0.32536	1669.92100
3.36961	0.32817	1674.80400
3.40436	0.33255	1652.70600
3.43911	0.32976	1657.53800
3.47388	0.32922	1657.53800
3.50862	0.32553	1652.70600
3.54338	0.32617	1652.70600
3.57813	0.32666	1669.92100
3.61289	0.32740	1652.70600
3.64793	0.32971	1669.92100
3.72774	0.32786	1674.80400
3.76248	0.32696	1669.92100
3.79723	0.32483	1669.92100
3.83198	0.32573	1657.53800
3.86673	0.32554	1652.70600
3.90149	0.33007	1652.70600
3.93623	0.33027	1652.70600
3.97094	0.32992	1652.70600
4.00575	0.32947	1652.70600
4.04050	0.32715	1657.53800
4.07525	0.32879	1657.53800
4.10999	0.32560	1657.53800
4.14475	0.32591	1674.80400
4.17950	0.32813	1674.80400
4.21425	0.32655	1669.92100
4.24901	0.33013	1674.80400
4.28376	0.32892	1652.70600
4.31851	0.32993	1669.92100
4.35327	0.32671	1665.03900
4.38801	0.32657	1652.70600
4.42277	0.32422	1669.92100
4.45752	0.32832	1674.80400
4.49228	0.33002	1652.70600
4.52704	0.33236	1652.70600
4.56179	0.33510	1652.70600
4.59662	0.33474	1669.92100
4.72019	0.33297	1669.92100
4.75490	0.33244	1669.92100
4.78964	0.33256	1669.92100
4.82439	0.33129	1652.70600
4.85914	0.33032	1669.92100
4.89390	0.32697	1665.03900
4.92865	0.32761	1652.70600
4.96340	0.33350	1665.03900
5.04282	0.33263	1652.70600
5.07757	0.33098	1665.03900
5.11232	0.32839	1647.87300
5.14708	0.32600	1652.70600
5.18183	0.32930	1652.70600
5.21658	0.33064	1647.87300
5.25133	0.33250	1652.70600
5.28609	0.33252	1665.03900
5.32085	0.33776	1652.70600
5.35563	0.32838	1647.87300
5.43398	0.33261	1647.87300
5.46873	0.33312	1665.03900
5.50348	0.33157	1660.15600
5.53823	0.32970	1665.03900
5.57298	0.32841	1669.92100
5.60773	0.32909	1643.04100
5.64250	0.32820	1660.15600
5.67725	0.33040	1647.87300
5.71200	0.33208	1665.03900
5.74675	0.33210	1669.92100
5.78150	0.33069	1665.03900
5.81625	0.33202	1665.03900
5.85100	0.33085	1669.92100
5.88576	0.32914	1652.70600
5.92051	0.32738	1647.87300
5.95526	0.32944	1647.87300
5.99002	0.33367	1665.03900
0.00021	0.70641	2435.74700
0.07843	0.86557	2666.01500
0.11314	1.07467	2885.86900
0.14788	1.28113	3054.81900
0.18263	1.42301	3334.17300
0.26186	1.66468	3396.57700
0.29661	1.73154	3462.10600
0.33141	1.83727	3581.54300
0.41076	1.85790	3569.71100
0.44544	1.88696	3605.76900
0.48024	1.90945	3627.40300
0.51499	1.92406	3652.64400
0.54974	1.94143	3639.07400
0.58451	1.94099	3649.80900
0.61925	1.96395	3664.12200
0.65402	1.97027	3667.70000
0.68876	1.97267	3643.46600
0.72351	1.96133	3678.43500
0.75828	1.96543	3654.11900
0.79301	1.97327	3685.59100
0.82777	1.98198	3689.17000
0.86253	1.98108	3657.67000
0.89728	1.98453	3657.67000
0.93204	1.97371	3661.22100
0.96680	1.97789	3689.17000
1.00155	1.98699	3692.74800
1.03630	1.98370	3696.32600
1.07105	1.97910	3696.32600
1.10580	1.96783	3692.74800
1.14055	1.97225	3692.74800
1.17530	1.98247	3689.17000
1.21006	1.98437	3661.22100
1.24482	1.97580	3661.22100
1.27957	1.97613	3664.77200
1.31432	1.97011	3668.32300
1.34909	1.97342	3664.77200
1.38384	1.97636	3668.32300
1.41859	1.98511	3664.77200
1.45347	2.98563	3689.17000
1.58381	1.98437	3664.77200
1.66211	1.98629	3661.22100
1.74195	1.98551	3661.22100
1.82035	1.98200	3664.77200
1.85509	1.98637	3664.77200
1.88984	1.98427	3664.77200
1.92459	1.97211	3671.87500
1.95933	1.98538	3668.32300
1.99409	1.98673	3668.32300
2.02884	1.98069	3668.32300
2.06358	1.97057	3664.77200
2.09832	1.98143	3671.87500
2.13309	1.96868	3668.32300
2.16785	1.97127	3664.77200
2.24721	1.97176	3668.32300
2.28194	1.97161	3668.32300
2.31668	1.96868	3668.32300
2.35144	1.97418	3668.32300
2.38619	1.98000	3668.32300
2.42094	1.97691	3671.87500
2.49999	1.96718	3668.32300
2.53474	1.96359	3668.32300
2.56949	1.96275	3664.77200
2.60423	1.96730	3675.42600
2.63900	1.98066	3671.87500
2.67374	1.97461	3675.42600
2.70848	1.96304	3675.42600
2.74325	1.97038	3671.87500
2.77799	1.98435	3671.87500
2.81273	1.98675	3671.87500
2.84750	1.98296	3671.87500
2.88225	1.97021	3671.87500
2.91701	1.97644	3671.87500
2.95174	1.98151	3671.87500
2.98649	1.98389	3671.87500
3.02126	1.97031	3675.42600
3.05601	1.98187	3671.87500
3.09075	1.98246	3703.48300
3.12550	1.97691	3675.42600
3.16026	1.97344	3668.32300
3.19503	1.96925	3668.32300
3.22977	1.97906	3668.32300
3.26451	1.97162	3668.32300
3.29926	1.98052	3671.87500
3.33401	1.97238	3675.42600
3.36876	1.97166	3675.42600
3.40351	1.98194	3671.87500
3.43826	1.97987	3675.42600
3.47303	1.96813	3675.42600
3.50776	1.98266	3671.87500
3.54251	1.98442	3671.87500
3.57727	1.98333	3671.87500
3.61202	1.97654	3678.97700
3.64678	1.97090	3675.42600
3.72599	1.97994	3678.97700
3.76075	1.97119	3671.87500
3.79550	1.96966	3671.87500
3.83024	1.97284	3699.90400
3.86500	1.96998	3703.48300
3.89975	1.96973	3699.90400
3.93449	1.97980	3678.97700
3.96926	1.98038	3678.97700
4.00400	1.96562	3671.87500
4.03875	1.97489	3675.42600
4.07351	1.97076	3675.42600
4.10826	1.97368	3699.90400
4.14303	1.96658	3671.87500
4.17777	1.96149	3675.42600
4.21252	1.96912	3675.42600
4.24728	1.97356	3678.97700
4.28201	1.97722	3682.52800
4.31677	1.97371	3678.97700
4.35151	1.97267	3678.97700
4.38627	1.97260	3678.97700
4.42104	1.97607	3682.52800
4.45580	1.97052	3678.97700
4.49053	1.96510	3678.97700
4.52530	1.97054	3707.06100
4.56002	1.96475	3678.97700
4.59477	1.96554	3678.97700
4.62953	1.97196	3678.97700
4.66428	1.97111	3678.97700
4.69903	1.96319	3675.42600
4.73378	1.96738	3675.42600
4.76853	1.96863	3675.42600
4.80328	1.96480	3682.52800
4.83803	1.97418	3682.52800
4.87278	1.96590	3675.42600
4.90753	1.97984	3703.48300
4.94227	1.96970	3675.42600
4.97703	1.97933	3675.42600
5.01178	1.97107	3675.42600
5.04652	1.97807	3678.97700
5.08127	1.97100	3675.42600
5.11603	1.98469	3678.97700
5.15078	1.97136	3675.42600
5.18552	1.96706	3671.87500
5.22027	1.96645	3671.87500
5.25502	1.96914	3671.87500
5.28977	1.97121	3671.87500
5.32452	1.97086	3699.90400
5.35927	1.97631	3668.32300
5.39401	1.96162	3675.42600
5.42877	1.96395	3671.87500
5.46352	1.96749	3675.42600
5.49826	1.96524	3696.32600
5.53303	1.96330	3675.42600
5.56777	1.96011	3668.32300
5.60247	1.96483	3671.87500
5.63727	1.96640	3675.42600
5.67203	1.96605	3668.32300
5.70677	1.96580	3668.32300
5.74153	1.96934	3668.32300
5.77627	1.96827	3668.32300
5.81103	1.97365	3703.48300
5.84577	1.97026	3675.42600
5.88053	1.97087	3671.87500
5.91528	1.96499	3668.32300
5.95002	1.96694	3668.32300
5.98477	1.97624	3668.32300
