Time (s)   roll (deg)   Delta
0.00034	-5.95431	11.27051
0.00440	-5.95431	11.27051
0.00846	-5.95431	11.27051
0.01251	-5.93234	11.27051
0.01657	-5.93234	11.27051
0.02062	-5.93234	11.27051
0.02469	-5.91037	11.27051
0.02875	-5.91037	11.27051
0.03280	-5.91037	11.27051
0.03686	-5.91037	11.27051
0.04091	-5.88839	11.27051
0.04497	-5.88839	11.27051
0.04902	-5.88839	11.27051
0.05307	-5.88839	11.27051
0.05713	-5.88839	11.27051
0.06119	-5.88839	11.27051
0.06524	-5.88839	11.27051
0.06929	-5.86642	11.27051
0.07335	-5.86642	11.27051
0.07740	-5.86642	11.27051
0.08146	-5.86642	11.27051
0.08551	-5.86642	11.27051
0.08957	-5.86642	11.27051
0.09362	-5.86642	11.27051
0.09768	-5.86642	11.27051
0.10191	-5.86642	11.27051
0.10596	-5.86642	11.27051
0.11002	-5.86642	11.27051
0.11407	-5.84445	11.27051
0.11813	-5.86642	11.27051
0.12218	-5.86642	11.27051
0.12624	-5.86642	11.27051
0.13030	-5.86642	11.27051
0.13435	-5.86642	11.27051
0.13841	-5.86642	11.27051
0.14246	-5.86642	11.27051
0.14652	-5.86642	11.27051
0.15057	-5.86642	11.27051
0.15463	-5.88839	11.27051
0.15868	-5.88839	11.27051
0.16273	-5.88839	11.27051
0.16679	-5.88839	11.27051
0.17084	-5.88839	11.27051
0.17490	-5.91037	11.27051
0.17895	-5.91037	11.27051
0.18301	-5.93234	11.27051
0.18706	-5.93234	11.27051
0.19112	-5.93234	11.27051
0.19517	-5.95431	11.27051
0.19923	-5.95431	11.27051
0.20346	-5.97629	11.27051
0.20752	-5.97629	11.27051
0.21157	-5.99826	11.27051
0.21563	-5.99826	11.27051
0.21969	-5.99826	11.27051
0.22374	-6.04220	11.27051
0.22779	-6.04220	11.27051
0.23186	-6.06418	11.27051
0.23592	-6.06418	11.27051
0.23997	-6.08615	11.27051
0.24403	-6.10812	11.27051
0.24809	-6.13009	11.27051
0.25214	-6.15207	11.27051
0.25620	-6.15207	11.27051
0.26025	-6.15207	11.27051
0.26431	-6.19601	11.27051
0.26837	-6.21798	11.27051
0.27242	-6.23996	11.27051
0.27647	-6.23996	11.27051
0.28053	-6.26193	11.27051
0.28459	-6.28390	11.27051
0.28864	-6.30588	11.27051
0.29270	-6.32785	11.27051
0.29676	-6.37179	11.27051
0.30081	-6.37179	11.27051
0.30504	-6.39377	11.27051
0.30909	-6.43771	11.27051
0.31314	-6.45968	11.27051
0.31720	-6.48166	11.27051
0.32125	-6.48166	11.27051
0.32531	-6.52560	11.27051
0.32936	-6.56955	11.27051
0.33342	-6.59152	11.27051
0.33748	-6.61349	11.27051
0.34153	-6.65744	11.27051
0.34559	-6.65744	11.27051
0.34965	-6.70138	11.27051
0.35370	-6.74533	11.27051
0.35776	-6.76730	11.27051
0.36181	-6.81125	11.27051
0.36587	-6.81125	11.27051
0.36992	-6.85519	11.27051
0.37398	-6.87716	11.27051
0.37804	-6.92111	11.27051
0.38209	-6.96506	11.27051
0.38615	-6.96506	11.27051
0.39020	-7.00900	11.27051
0.39426	-7.05295	11.27051
0.39831	-7.11886	11.27051
0.40237	-7.14084	11.27051
0.40659	-7.14084	11.27051
0.41064	-7.18478	11.27051
0.41470	-7.25070	11.27051
0.41875	-7.29464	11.27051
0.42281	-7.33859	11.27051
0.42686	-7.33859	11.27051
0.43092	-7.38254	11.27051
0.43498	-7.44845	11.27051
0.43903	-7.49240	11.27051
0.44309	-7.53634	11.27051
0.44714	-7.53634	11.27051
0.45119	-7.60226	11.27051
0.45525	-7.64621	11.27051
0.45930	-7.69015	11.27051
0.46336	-7.73410	11.27051
0.46741	-7.80002	11.27051
0.47147	-7.80002	11.27051
0.47552	-7.84396	11.27051
0.47958	-7.90988	11.27051
0.48363	-7.95382	11.27051
0.48769	-7.95382	11.27051
0.49174	-8.01974	11.27051
0.49580	-8.06369	11.27051
0.49985	-8.10763	11.27051
0.50391	-8.17355	11.27051
0.50813	-8.23947	11.27051
0.51219	-8.23947	11.27051
0.51624	-8.28341	11.27051
0.52030	-8.34933	11.27051
0.52436	-8.41525	11.27051
0.52841	-8.48117	11.27051
0.53247	-8.48117	11.27051
0.53653	-8.54709	11.27051
0.54059	-8.61300	11.27051
0.54464	-8.65695	11.27051
0.54870	-8.72287	11.27051
0.55275	-8.76681	11.27051
0.55681	-8.76681	11.27051
0.56086	-8.83273	11.27051
0.56492	-8.89865	11.27051
0.56897	-8.98654	11.27051
0.57303	-9.03048	11.27051
0.57708	-9.03048	11.27051
0.58113	-9.11838	11.27051
0.58519	-9.16232	11.27051
0.58924	-9.22824	11.27051
0.59330	-9.29416	11.27051
0.59735	-9.36007	11.27051
0.60141	-9.36007	11.27051
0.60546	-9.42599	11.27051
0.60969	-9.49191	11.27051
0.61375	-9.55783	11.27051
0.61780	-9.55783	11.27051
0.62186	-9.62375	11.27051
0.62591	-9.71164	11.27051
0.62997	-9.75558	11.27051
0.63403	-9.82150	11.27051
0.63809	-9.90939	11.27051
0.64215	-9.90939	11.27051
0.64620	-9.95334	11.27051
0.65026	-10.04123	11.27051
0.65431	-10.10714	11.27051
0.65837	-10.17306	11.27051
0.66242	-10.17306	11.27051
0.66648	-10.26095	11.27051
0.67054	-10.32687	11.27051
0.67459	-10.39279	11.27051
0.67865	-10.48068	11.27051
0.68271	-10.48068	11.27051
0.68677	-10.54660	11.27051
0.69082	-10.61252	11.27051
0.69488	-10.70041	11.27051
0.69894	-10.76632	11.27051
0.70299	-10.76632	11.27051
0.70705	-10.85422	11.27051
0.71127	-10.92013	11.27051
0.71532	-10.98605	11.27051
0.71938	-11.05197	11.27051
0.72344	-11.11789	11.27051
0.72749	-11.11789	11.27051
0.73155	-11.20578	11.27051
0.73561	-11.27170	11.27051
0.73966	-11.33761	11.27051
0.74372	-11.33761	11.27051
0.74778	-11.42550	11.27051
0.75183	-11.49142	11.27051
0.75589	-11.55734	11.27051
0.75995	-11.62326	11.27051
0.76400	-11.68918	11.27051
0.76806	-11.68918	11.27051
0.77211	-11.77707	11.27051
0.77617	-11.86496	11.27051
0.78023	-11.93088	11.27051
0.78428	-11.99679	11.27051
0.78834	-11.99679	11.27051
0.79239	-12.08468	11.27051
0.79645	-12.15060	11.27051
0.80050	-12.21652	11.27051
0.80456	-12.30441	11.27051
0.80862	-12.37033	11.27051
0.81284	-12.37033	11.27051
0.81690	-12.45822	11.27051
0.82095	-12.52414	11.27051
0.82501	-12.59006	11.27051
0.82906	-12.65597	11.27051
0.83312	-12.65597	11.27051
0.83714	-12.74386	11.27051
0.84119	-12.80978	11.27051
0.84525	-12.87570	11.27051
0.84930	-12.94162	11.27051
0.85336	-13.02951	11.27051
0.85741	-13.02951	11.27051
0.86147	-13.09543	11.27051
0.86552	-13.16134	11.27051
0.86958	-13.24923	11.27051
0.87363	-13.24923	11.27051
0.87769	-13.33713	11.27051
0.88174	-13.38107	11.27051
0.88580	-13.44699	11.27051
0.88985	-13.51291	11.27051
0.89390	-13.60080	11.27051
0.89796	-13.60080	11.27051
0.90201	-13.66672	11.27051
0.90607	-13.75461	11.27051
0.91012	-13.82052	11.27051
0.91435	-13.88644	11.27051
0.91841	-13.88644	11.27051
0.92246	-13.95236	11.27051
0.92652	-14.01828	11.27051
0.93057	-14.10617	11.27051
0.93463	-14.17209	11.27051
0.93868	-14.17209	11.27051
0.94274	-14.23800	11.27051
0.94679	-14.30392	11.27051
0.95085	-14.39181	11.27051
0.95490	-14.45773	11.27051
0.95896	-14.45773	11.27051
0.96301	-14.52365	11.27051
0.96707	-14.58957	11.27051
0.97112	-14.65548	11.27051
0.97518	-14.72140	11.27051
0.97923	-14.72140	11.27051
0.98329	-14.78732	11.27051
0.98734	-14.87521	11.27051
0.99140	-14.94113	11.27051
0.99545	-15.00705	11.27051
0.99950	-15.00705	11.27051
1.00356	-15.09494	11.27051
1.00762	-15.13888	11.27051
1.01167	-15.20480	11.27051
1.01589	-15.27072	11.27051
1.01995	-15.33664	11.27051
1.02400	-15.33664	11.27051
1.02806	-15.40256	11.27051
1.03212	-15.46847	11.27051
1.03617	-15.53439	11.27051
1.04023	-15.60031	11.27051
1.04428	-15.60031	11.27051
1.04834	-15.66623	11.27051
1.05240	-15.73214	11.27051
1.05646	-15.79806	11.27051
1.06051	-15.84201	11.27051
1.06457	-15.90793	11.27051
1.06863	-15.90793	11.27051
1.07268	-15.97384	11.27051
1.07673	-16.03976	11.27051
1.08079	-16.10568	11.27051
1.08485	-16.17160	11.27051
1.08890	-16.17160	11.27051
1.09296	-16.23752	11.27051
1.09702	-16.28146	11.27051
1.10107	-16.34738	11.27051
1.10513	-16.39132	11.27051
1.10919	-16.39132	11.27051
1.11325	-16.45724	11.27051
1.11747	-16.52316	11.27051
1.12153	-16.58908	11.27051
1.12558	-16.63302	11.27051
1.12964	-16.63302	11.27051
1.13370	-16.67697	11.27051
1.13775	-16.76486	11.27051
1.14180	-16.78683	11.27051
1.14588	-16.85275	11.27051
1.14993	-16.89670	11.27051
1.15400	-16.89670	11.27051
1.15805	-16.96261	11.27051
1.16211	-17.02853	11.27051
1.16617	-17.07248	11.27051
1.17022	-17.13839	11.27051
1.17428	-17.13839	11.27051
1.17834	-17.18234	11.27051
1.18240	-17.22629	11.27051
1.18646	-17.29220	11.27051
1.19051	-17.33615	11.27051
1.19457	-17.33615	11.27051
1.19863	-17.38009	11.27051
1.20269	-17.42404	11.27051
1.20674	-17.48996	11.27051
1.21080	-17.53390	11.27051
1.21486	-17.53390	11.27051
1.21909	-17.57785	11.27051
1.22315	-17.62179	11.27051
1.22721	-17.66574	11.27051
1.23127	-17.70968	11.27051
1.23533	-17.75363	11.27051
1.23939	-17.75363	11.27051
1.24344	-17.79757	11.27051
1.24779	-17.84152	11.27051
1.25186	-17.88547	11.27051
1.25592	-17.92941	11.27051
1.25998	-17.92941	11.27051
1.26403	-17.97336	11.27051
1.26809	-17.99533	11.27051
1.27215	-18.03927	11.27051
1.27621	-18.08322	11.27051
1.28027	-18.08322	11.27051
1.28443	-18.12716	11.27051
1.28849	-18.17111	11.27051
1.29255	-18.21506	11.27051
1.29660	-18.23703	11.27051
1.30065	-18.23703	11.27051
1.30472	-18.28097	11.27051
1.30877	-18.30295	11.27051
1.31283	-18.34689	11.27051
1.31688	-18.36886	11.27051
1.32111	-18.41281	11.27051
1.32513	-18.41281	11.27051
1.32919	-18.45675	11.27051
1.33324	-18.47873	11.27051
1.33730	-18.50070	11.27051
1.34136	-18.54464	11.27051
1.34541	-18.54464	11.27051
1.34949	-18.56662	11.27051
1.35355	-18.58859	11.27051
1.35760	-18.61056	11.27051
1.36166	-18.65451	11.27051
1.36571	-18.67648	11.27051
1.36977	-18.67648	11.27051
1.37382	-18.69845	11.27051
1.37788	-18.72043	11.27051
1.38193	-18.74240	11.27051
1.38598	-18.78634	11.27051
1.39004	-18.78634	11.27051
1.39409	-18.78634	11.27051
1.39815	-18.83029	11.27051
1.40220	-18.83029	11.27051
1.40626	-18.85226	11.27051
1.41031	-18.85226	11.27051
1.41437	-18.87423	11.27051
1.41842	-18.89621	11.27051
1.42266	-18.91818	11.27051
1.42671	-18.94015	11.27051
1.43077	-18.94015	11.27051
1.43482	-18.94015	11.27051
1.43888	-18.96213	11.27051
1.44293	-18.98410	11.27051
1.44699	-18.98410	11.27051
1.45106	-18.98410	11.27051
1.45511	-19.00607	11.27051
1.45918	-19.02804	11.27051
1.46323	-19.02804	11.27051
1.46729	-19.05002	11.27051
1.47134	-19.05002	11.27051
1.47540	-19.05002	11.27051
1.47945	-19.07199	11.27051
1.48351	-19.07199	11.27051
1.48756	-19.07199	11.27051
1.49162	-19.07199	11.27051
1.49567	-19.07199	11.27051
1.49973	-19.07199	11.27051
1.50378	-19.09396	11.27051
1.50784	-19.09396	11.27051
1.51189	-19.09396	11.27051
1.51595	-19.09396	11.27051
1.52000	-19.09396	11.27051
1.52422	-19.11593	11.27051
1.52828	-19.09396	11.27051
1.53233	-19.11593	11.27051
1.53639	-19.11593	11.27051
1.54044	-19.09396	11.27051
1.54450	-19.09396	11.27051
1.54855	-19.09396	11.27051
1.55262	-19.09396	11.27051
1.55668	-19.09396	11.27051
1.56074	-19.09396	11.27051
1.56479	-19.09396	11.27051
1.56885	-19.07199	11.27051
1.57291	-19.09396	11.27051
1.57696	-19.07199	11.27051
1.58102	-19.07199	11.27051
1.58507	-19.05002	11.27051
1.58913	-19.07199	11.27051
1.59319	-19.05002	11.27051
1.59724	-19.05002	11.27051
1.60129	-19.05002	11.27051
1.60535	-19.02804	11.27051
1.60940	-19.00607	11.27051
1.61346	-19.00607	11.27051
1.61751	-19.00607	11.27051
1.62157	-18.98410	11.27051
1.62580	-18.98410	11.27051
1.62986	-18.98410	11.27051
1.63391	-18.94015	11.27051
1.63797	-18.94015	11.27051
1.64202	-18.91818	11.27051
1.64609	-18.91818	11.27051
1.65014	-18.91818	11.27051
1.65422	-18.89621	11.27051
1.65827	-18.87423	11.27051
1.66233	-18.85226	11.27051
1.66638	-18.85226	11.27051
1.67044	-18.83029	11.27051
1.67450	-18.83029	11.27051
1.67855	-18.78634	11.27051
1.68261	-18.76437	11.27051
1.68666	-18.76437	11.27051
1.69072	-18.76437	11.27051
1.69477	-18.72043	11.27051
1.69883	-18.72043	11.27051
1.70288	-18.67648	11.27051
1.70693	-18.67648	11.27051
1.71099	-18.67648	11.27051
1.71504	-18.63254	11.27051
1.71910	-18.61056	11.27051
1.72315	-18.61056	11.27051
1.72739	-18.61056	11.27051
1.73144	-18.56662	11.27051
1.73550	-18.52267	11.27051
1.73955	-18.52267	11.27051
1.74361	-18.47873	11.27051
1.74766	-18.45675	11.27051
1.75172	-18.45675	11.27051
1.75579	-18.43478	11.27051
1.75985	-18.41281	11.27051
1.76390	-18.36886	11.27051
1.76796	-18.34689	11.27051
1.77202	-18.34689	11.27051
1.77607	-18.32492	11.27051
1.78013	-18.30295	11.27051
1.78418	-18.25900	11.27051
1.78824	-18.23703	11.27051
1.79229	-18.23703	11.27051
1.79635	-18.21506	11.27051
1.80040	-18.17111	11.27051
1.80445	-18.14914	11.27051
1.80851	-18.10519	11.27051
1.81256	-18.10519	11.27051
1.81662	-18.08322	11.27051
1.82067	-18.06125	11.27051
1.82473	-18.03927	11.27051
1.82896	-17.99533	11.27051
1.83302	-17.95138	11.27051
1.83707	-17.95138	11.27051
1.84112	-17.92941	11.27051
1.84518	-17.90744	11.27051
1.84923	-17.86349	11.27051
1.85329	-17.81955	11.27051
1.85736	-17.81955	11.27051
1.86142	-17.79757	11.27051
1.86548	-17.77560	11.27051
1.86954	-17.73166	11.27051
1.87359	-17.70968	11.27051
1.87765	-17.66574	11.27051
1.88170	-17.66574	11.27051
1.88576	-17.62179	11.27051
1.88982	-17.57785	11.27051
1.89387	-17.55588	11.27051
1.89793	-17.51193	11.27051
1.90199	-17.51193	11.27051
1.90605	-17.46798	11.27051
1.91010	-17.44601	11.27051
1.91416	-17.42404	11.27051
1.91822	-17.38009	11.27051
1.92228	-17.38009	11.27051
1.92633	-17.33615	11.27051
1.93056	-17.31418	11.27051
1.93462	-17.27023	11.27051
1.93868	-17.22629	11.27051
1.94273	-17.22629	11.27051
1.94679	-17.20431	11.27051
1.95085	-17.16037	11.27051
1.95491	-17.11642	11.27051
1.95897	-17.07248	11.27051
1.96304	-17.07248	11.27051
1.96709	-17.05050	11.27051
1.97115	-17.00656	11.27051
1.97521	-16.96261	11.27051
1.97926	-16.91867	11.27051
1.98332	-16.91867	11.27051
1.98738	-16.89670	11.27051
1.99143	-16.85275	11.27051
1.99549	-16.83078	11.27051
1.99955	-16.78683	11.27051
2.00360	-16.74289	11.27051
2.00766	-16.74289	11.27051
2.01171	-16.69894	11.27051
2.01577	-16.67697	11.27051
2.01982	-16.63302	11.27051
2.02388	-16.58908	11.27051
2.02793	-16.58908	11.27051
2.03216	-16.54513	11.27051
2.03622	-16.52316	11.27051
2.04028	-16.47922	11.27051
2.04433	-16.43527	11.27051
2.04839	-16.43527	11.27051
2.05244	-16.41330	11.27051
2.05650	-16.34738	11.27051
2.06057	-16.32541	11.27051
2.06462	-16.28146	11.27051
2.06868	-16.28146	11.27051
2.07273	-16.23752	11.27051
2.07679	-16.19357	11.27051
2.08084	-16.17160	11.27051
2.08490	-16.14963	11.27051
2.08896	-16.10568	11.27051
2.09301	-16.10568	11.27051
2.09706	-16.06173	11.27051
2.10112	-16.01779	11.27051
2.10513	-15.97384	11.27051
2.10919	-15.95187	11.27051
2.11325	-15.95187	11.27051
2.11730	-15.90793	11.27051
2.12136	-15.88595	11.27051
2.12541	-15.84201	11.27051
2.12947	-15.79806	11.27051
2.13370	-15.75412	11.27051
2.13776	-15.75412	11.27051
2.14182	-15.71017	11.27051
2.14587	-15.68820	11.27051
2.14994	-15.64425	11.27051
2.15400	-15.60031	11.27051
2.15806	-15.60031	11.27051
2.16212	-15.57834	11.27051
2.16618	-15.53439	11.27051
2.17024	-15.49045	11.27051
2.17429	-15.46847	11.27051
2.17834	-15.46847	11.27051
2.18240	-15.42453	11.27051
2.18646	-15.40256	11.27051
2.19051	-15.35861	11.27051
2.19457	-15.31466	11.27051
2.19862	-15.31466	11.27051
2.20268	-15.27072	11.27051
2.20673	-15.24875	11.27051
2.21079	-15.20480	11.27051
2.21484	-15.18283	11.27051
2.21890	-15.18283	11.27051
2.22296	-15.13888	11.27051
2.22701	-15.09494	11.27051
2.23107	-15.07297	11.27051
2.23530	-15.02902	11.27051
2.23936	-15.02902	11.27051
2.24341	-14.98507	11.27051
2.24747	-14.96310	11.27051
2.25153	-14.94113	11.27051
2.25558	-14.89718	11.27051
2.25964	-14.87521	11.27051
2.26370	-14.87521	11.27051
2.26776	-14.83127	11.27051
2.27182	-14.80929	11.27051
2.27587	-14.76535	11.27051
2.27993	-14.74338	11.27051
2.28399	-14.74338	11.27051
2.28805	-14.69943	11.27051
2.29210	-14.67746	11.27051
2.29620	-14.65548	11.27051
2.30026	-14.61154	11.27051
2.30432	-14.61154	11.27051
2.30837	-14.58957	11.27051
2.31243	-14.54562	11.27051
2.31649	-14.52365	11.27051
2.32054	-14.47970	11.27051
2.32460	-14.47970	11.27051
2.32866	-14.45773	11.27051
2.33271	-14.43576	11.27051
2.33694	-14.39181	11.27051
2.34100	-14.36984	11.27051
2.34506	-14.34787	11.27051
2.34911	-14.34787	11.27051
2.35313	-14.30392	11.27051
2.35719	-14.28195	11.27051
2.36125	-14.25998	11.27051
2.36531	-14.21603	11.27051
2.36937	-14.21603	11.27051
2.37342	-14.19406	11.27051
2.37748	-14.17209	11.27051
2.38154	-14.15011	11.27051
2.38560	-14.10617	11.27051
2.38965	-14.08420	11.27051
2.39371	-14.08420	11.27051
2.39776	-14.06222	11.27051
2.40182	-14.04025	11.27051
2.40587	-14.01828	11.27051
2.40994	-13.97433	11.27051
2.41400	-13.97433	11.27051
2.41805	-13.95236	11.27051
2.42211	-13.93039	11.27051
2.42617	-13.90841	11.27051
2.43022	-13.88644	11.27051
2.43428	-13.88644	11.27051
2.43850	-13.86447	11.27051
2.44256	-13.84250	11.27051
2.44662	-13.82052	11.27051
2.45067	-13.77658	11.27051
2.45473	-13.77658	11.27051
2.45879	-13.75461	11.27051
2.46284	-13.73263	11.27051
2.46691	-13.71066	11.27051
2.47097	-13.68869	11.27051
2.47503	-13.68869	11.27051
2.47909	-13.66672	11.27051
2.48315	-13.64474	11.27051
2.48720	-13.62277	11.27051
2.49126	-13.60080	11.27051
2.49532	-13.60080	11.27051
2.49937	-13.57882	11.27051
2.50343	-13.55685	11.27051
2.50749	-13.53488	11.27051
2.51154	-13.51291	11.27051
2.51560	-13.51291	11.27051
2.51966	-13.51291	11.27051
2.52372	-13.49093	11.27051
2.52777	-13.46896	11.27051
2.53183	-13.44699	11.27051
2.53589	-13.42502	11.27051
2.54012	-13.42502	11.27051
2.54417	-13.40304	11.27051
2.54823	-13.38107	11.27051
2.55229	-13.38107	11.27051
2.55634	-13.35910	11.27051
2.56040	-13.35910	11.27051
2.56445	-13.33713	11.27051
2.56853	-13.31515	11.27051
2.57259	-13.31515	11.27051
2.57664	-13.29318	11.27051
2.58070	-13.29318	11.27051
2.58476	-13.27121	11.27051
2.58882	-13.24923	11.27051
2.59287	-13.24923	11.27051
2.59693	-13.22726	11.27051
2.60099	-13.22726	11.27051
2.60505	-13.22726	11.27051
2.60910	-13.20529	11.27051
2.61313	-13.18332	11.27051
2.61724	-13.18332	11.27051
2.62129	-13.16134	11.27051
2.62535	-13.16134	11.27051
2.62940	-13.13937	11.27051
2.63346	-13.13937	11.27051
2.63751	-13.11740	11.27051
2.64174	-13.11740	11.27051
2.64579	-13.09543	11.27051
2.64985	-13.09543	11.27051
2.65390	-13.09543	11.27051
2.65796	-13.07345	11.27051
2.66201	-13.05148	11.27051
2.66607	-13.05148	11.27051
2.67015	-13.05148	11.27051
2.67420	-13.02951	11.27051
2.67826	-13.02951	11.27051
2.68231	-13.02951	11.27051
2.68637	-13.02951	11.27051
2.69043	-13.02951	11.27051
2.69448	-13.00754	11.27051
2.69854	-13.00754	11.27051
2.70259	-12.98556	11.27051
2.70665	-12.98556	11.27051
2.71070	-12.98556	11.27051
2.71477	-12.98556	11.27051
2.71883	-12.96359	11.27051
2.72288	-12.96359	11.27051
2.72694	-12.96359	11.27051
2.73100	-12.96359	11.27051
2.73506	-12.94162	11.27051
2.73911	-12.96359	11.27051
2.74334	-12.94162	11.27051
2.74739	-12.94162	11.27051
2.75145	-12.94162	11.27051
2.75550	-12.91964	11.27051
2.75955	-12.91964	11.27051
2.76361	-12.91964	11.27051
2.76766	-12.91964	11.27051
2.77174	-12.89767	11.27051
2.77579	-12.89767	11.27051
2.77985	-12.91964	11.27051
2.78391	-12.89767	11.27051
2.78797	-12.91964	11.27051
2.79202	-12.91964	11.27051
2.79607	-12.91964	11.27051
2.80013	-12.89767	11.27051
2.80418	-12.91964	11.27051
2.80824	-12.89767	11.27051
2.81229	-12.91964	11.27051
2.81635	-12.91964	11.27051
2.82040	-12.89767	11.27051
2.82446	-12.91964	11.27051
2.82851	-12.91964	11.27051
2.83256	-12.89767	11.27051
2.83662	-12.89767	11.27051
2.84067	-12.89767	11.27051
2.84491	-12.91964	11.27051
2.84896	-12.91964	11.27051
2.85302	-12.89767	11.27051
2.85707	-12.91964	11.27051
2.86113	-12.91964	11.27051
2.86518	-12.91964	11.27051
2.86924	-12.89767	11.27051
2.87331	-12.94162	11.27051
2.87737	-12.91964	11.27051
2.88142	-12.91964	11.27051
2.88548	-12.91964	11.27051
2.88953	-12.91964	11.27051
2.89359	-12.91964	11.27051
2.89764	-12.94162	11.27051
2.90170	-12.91964	11.27051
2.90575	-12.91964	11.27051
2.90981	-12.94162	11.27051
2.91386	-12.94162	11.27051
2.91792	-12.94162	11.27051
2.92197	-12.94162	11.27051
2.92602	-12.94162	11.27051
2.93008	-12.96359	11.27051
2.93413	-12.96359	11.27051
2.93819	-12.96359	11.27051
2.94224	-12.98556	11.27051
2.94648	-12.98556	11.27051
2.95053	-12.98556	11.27051
2.95459	-12.98556	11.27051
2.95864	-12.98556	11.27051
2.96269	-13.00754	11.27051
2.96675	-13.00754	11.27051
2.97080	-13.00754	11.27051
2.97487	-13.00754	11.27051
2.97893	-13.02951	11.27051
2.98299	-13.05148	11.27051
2.98704	-13.05148	11.27051
2.99110	-13.02951	11.27051
2.99515	-13.05148	11.27051
2.99921	-13.05148	11.27051
3.00326	-13.05148	11.27051
3.00732	-13.05148	11.27051
3.01137	-13.07345	11.27051
3.01543	-13.07345	11.27051
3.01948	-13.09543	11.27051
3.02354	-13.11740	11.27051
